ENVI ASCII Plot File [Sun Apr 06 16:22:04 2025]
Column 1: Wavelength
Column 2: Min: ROI #25~~2##255,0,0
Column 3: Mean-StdDev: ROI #25~~21##0,200,0
Column 4: Mean: ROI #25~~0##0,0,0
Column 5: Mean+StdDev: ROI #25~~21##0,200,0
Column 6: Max: ROI #25~~2##255,0,0
   935.609985  0.246571  0.452606  0.527319  0.602032  0.752131
   939.059998  0.252128  0.455338  0.530397  0.605455  0.749563
   942.520020  0.234436  0.473837  0.560063  0.646290  0.819140
   945.979980  0.243666  0.485832  0.582567  0.679302  0.872451
   949.429993  0.228108  0.494472  0.598288  0.702104  0.904871
   952.890015  0.239119  0.501772  0.608875  0.715978  0.921259
   956.349976  0.239768  0.507353  0.616455  0.725556  0.938142
   959.809998  0.240328  0.511368  0.621484  0.731600  0.947112
   963.270020  0.245023  0.515200  0.626124  0.737047  0.951687
   966.729980  0.245527  0.518426  0.630095  0.741763  0.962012
   970.190002  0.249219  0.521834  0.634092  0.746350  0.966880
   973.650024  0.251337  0.524684  0.637522  0.750361  0.973364
   977.109985  0.251849  0.527559  0.640950  0.754340  0.978577
   980.580017  0.250792  0.530549  0.644541  0.758532  0.984818
   984.039978  0.253434  0.533595  0.648076  0.762557  0.984950
   987.510010  0.253049  0.536354  0.651316  0.766278  0.994830
   990.969971  0.258723  0.539348  0.654827  0.770307  0.996452
   994.429993  0.255583  0.542257  0.658268  0.774279  1.004890
   997.900024  0.260535  0.545436  0.661936  0.778436  1.005535
  1001.369995  0.261009  0.548232  0.665263  0.782294  1.012611
  1004.830017  0.262767  0.551173  0.668674  0.786175  1.015795
  1008.299988  0.262179  0.554134  0.672159  0.790185  1.022527
  1011.770020  0.266390  0.557328  0.675799  0.794270  1.025856
  1015.239990  0.267577  0.560105  0.679146  0.798188  1.029825
  1018.710022  0.266878  0.563007  0.682498  0.801989  1.034643
  1022.179993  0.267490  0.565998  0.685986  0.805973  1.039211
  1025.650024  0.269452  0.568989  0.689484  0.809980  1.044750
  1029.119995  0.269719  0.571885  0.692902  0.813919  1.047053
  1032.589966  0.272257  0.574860  0.696349  0.817839  1.054309
  1036.060059  0.273514  0.577664  0.699613  0.821561  1.060014
  1039.530029  0.273853  0.580451  0.702907  0.825363  1.064516
  1043.000000  0.274193  0.583255  0.706229  0.829203  1.067448
  1046.479980  0.276969  0.586262  0.709673  0.833084  1.074088
  1049.949951  0.279897  0.588988  0.712881  0.836774  1.079581
  1053.430054  0.280253  0.591574  0.715946  0.840318  1.082807
  1056.900024  0.282204  0.594278  0.719130  0.843983  1.087188
  1060.380005  0.284675  0.596993  0.722286  0.847579  1.091989
  1063.849976  0.285996  0.599609  0.725349  0.851090  1.095428
  1067.329956  0.286966  0.602207  0.728410  0.854612  1.100844
  1070.810059  0.288768  0.604778  0.731402  0.858025  1.105582
  1074.290039  0.290319  0.607310  0.734375  0.861440  1.109713
  1077.760010  0.290410  0.609764  0.737261  0.864757  1.114929
  1081.239990  0.290494  0.612215  0.740098  0.867980  1.118690
  1084.719971  0.291938  0.614538  0.742817  0.871095  1.120606
  1088.199951  0.293011  0.616634  0.745334  0.874035  1.124491
  1091.680054  0.292812  0.618595  0.747711  0.876828  1.130647
  1095.170044  0.294083  0.620619  0.750115  0.879610  1.133381
  1098.650024  0.295219  0.622575  0.752394  0.882213  1.136523
  1102.130005  0.295466  0.624173  0.754317  0.884462  1.139365
  1105.609985  0.294220  0.625618  0.756041  0.886465  1.140066
  1109.099976  0.294871  0.627003  0.757660  0.888317  1.140569
  1112.579956  0.295563  0.628328  0.759247  0.890166  1.144167
  1116.069946  0.295724  0.629532  0.760736  0.891939  1.144197
  1119.550049  0.293215  0.630619  0.762061  0.893503  1.143043
  1123.040039  0.291019  0.631423  0.763043  0.894663  1.145288
  1126.520020  0.289848  0.631943  0.763636  0.895328  1.144942
  1130.010010  0.286103  0.631717  0.763473  0.895229  1.145669
  1133.500000  0.282200  0.630943  0.762679  0.894416  1.139620
  1136.989990  0.277855  0.629624  0.761414  0.893205  1.134266
  1140.469971  0.273706  0.628586  0.760457  0.892328  1.130332
  1143.959961  0.272307  0.628034  0.760055  0.892076  1.130674
  1147.449951  0.274713  0.628214  0.760343  0.892472  1.131288
  1150.939941  0.277889  0.628843  0.760966  0.893090  1.135817
  1154.430054  0.283501  0.629608  0.761612  0.893616  1.138156
  1157.930054  0.285548  0.629610  0.761505  0.893399  1.141677
  1161.420044  0.285349  0.628933  0.760610  0.892287  1.142296
  1164.910034  0.287437  0.627670  0.759149  0.890629  1.141114
  1168.400024  0.288295  0.626544  0.757807  0.889070  1.139927
  1171.900024  0.286839  0.625320  0.756403  0.887485  1.136755
  1175.390015  0.288551  0.624090  0.754992  0.885895  1.133568
  1178.890015  0.286351  0.622948  0.753679  0.884409  1.132986
  1182.380005  0.285341  0.622213  0.752793  0.883373  1.131917
  1185.880005  0.284059  0.621804  0.752355  0.882905  1.131864
  1189.369995  0.283292  0.622094  0.752727  0.883360  1.131629
  1192.869995  0.282666  0.622878  0.753712  0.884546  1.132378
  1196.369995  0.283641  0.624153  0.755238  0.886323  1.133730
  1199.869995  0.281872  0.625429  0.756837  0.888246  1.135133
  1203.369995  0.281385  0.626950  0.758699  0.890448  1.142553
  1206.869995  0.281946  0.628463  0.760563  0.892662  1.142418
  1210.369995  0.285536  0.630373  0.762800  0.895228  1.142493
  1213.869995  0.285211  0.632569  0.765394  0.898218  1.148250
  1217.369995  0.286879  0.635142  0.768407  0.901672  1.156003
  1220.869995  0.290202  0.637683  0.771524  0.905364  1.158358
  1224.369995  0.294563  0.640388  0.774735  0.909082  1.164112
  1227.869995  0.295009  0.643094  0.777950  0.912805  1.170050
  1231.380005  0.295284  0.645678  0.780949  0.916221  1.176042
  1234.880005  0.296841  0.647956  0.783664  0.919372  1.179946
  1238.390015  0.298567  0.650150  0.786254  0.922358  1.185434
  1241.890015  0.299512  0.652141  0.788627  0.925113  1.187179
  1245.400024  0.300334  0.654001  0.790802  0.927602  1.194081
  1248.900024  0.303552  0.655651  0.792853  0.930055  1.196480
  1252.410034  0.304520  0.657198  0.794597  0.931995  1.200211
  1255.920044  0.305717  0.658550  0.796311  0.934072  1.203989
  1259.420044  0.307238  0.659730  0.797784  0.935838  1.207268
  1262.930054  0.306560  0.660757  0.799098  0.937439  1.212408
  1266.439941  0.306541  0.662063  0.800591  0.939119  1.214971
  1269.949951  0.307416  0.663045  0.801794  0.940542  1.218443
  1273.459961  0.307964  0.664241  0.803219  0.942197  1.220814
  1276.969971  0.309986  0.665287  0.804574  0.943862  1.223155
  1280.479980  0.306833  0.666520  0.806049  0.945578  1.223922
  1283.989990  0.307835  0.667646  0.807509  0.947372  1.225638
  1287.510010  0.308562  0.668866  0.808947  0.949027  1.230796
  1291.020020  0.312801  0.669877  0.810280  0.950683  1.231858
  1294.530029  0.310064  0.670990  0.811524  0.952059  1.232216
  1298.050049  0.307530  0.671514  0.812378  0.953242  1.236510
  1301.560059  0.308797  0.672326  0.813318  0.954310  1.236986
  1305.079956  0.309595  0.672895  0.814052  0.955209  1.235298
  1308.589966  0.310114  0.673393  0.814641  0.955888  1.238195
  1312.109985  0.308154  0.673276  0.814684  0.956092  1.242497
  1315.619995  0.307829  0.673180  0.814571  0.955961  1.236797
  1319.140015  0.307130  0.672527  0.813967  0.955408  1.239744
  1322.660034  0.308336  0.671817  0.813138  0.954459  1.233138
  1326.180054  0.305020  0.670240  0.811467  0.952693  1.232757
  1329.699951  0.306121  0.668299  0.809267  0.950235  1.230246
  1333.219971  0.301404  0.665354  0.806000  0.946647  1.229685
  1336.739990  0.302797  0.662260  0.802361  0.942462  1.223573
  1340.260010  0.300342  0.658450  0.798131  0.937812  1.216308
  1343.780029  0.295694  0.654458  0.793464  0.932469  1.205488
  1347.300049  0.291196  0.649786  0.788166  0.926546  1.199214
  1350.819946  0.292383  0.645204  0.782919  0.920633  1.190345
  1354.349976  0.288968  0.640864  0.777855  0.914846  1.185330
  1357.869995  0.286904  0.636817  0.773141  0.909465  1.178891
  1361.390015  0.284426  0.632937  0.768646  0.904355  1.170285
  1364.920044  0.281117  0.629144  0.764280  0.899416  1.160993
  1368.439941  0.278462  0.625468  0.760215  0.894961  1.155656
  1371.969971  0.279760  0.622240  0.756583  0.890927  1.146845
  1375.500000  0.275962  0.619493  0.753588  0.887682  1.141825
  1379.020020  0.275663  0.617340  0.750943  0.884547  1.136990
  1382.550049  0.271952  0.614608  0.747772  0.880936  1.131494
  1386.079956  0.270810  0.611219  0.743997  0.876776  1.127444
  1389.609985  0.266128  0.607010  0.739220  0.871431  1.119909
  1393.140015  0.268061  0.602142  0.733372  0.864602  1.112004
  1396.670044  0.259500  0.595988  0.726283  0.856578  1.097856
  1400.199951  0.259620  0.589356  0.718516  0.847676  1.089928
  1403.729980  0.254249  0.581271  0.709127  0.836984  1.076599
  1407.260010  0.247667  0.572171  0.698544  0.824916  1.060706
  1410.790039  0.243909  0.562187  0.686910  0.811633  1.040336
  1414.319946  0.238837  0.551268  0.674282  0.797297  1.023780
  1417.859985  0.235425  0.540019  0.661139  0.782258  1.000787
  1421.390015  0.230611  0.528945  0.648094  0.767243  0.983422
  1424.920044  0.225852  0.518136  0.635336  0.752536  0.962881
  1428.459961  0.219550  0.508138  0.623619  0.739100  0.947070
  1431.989990  0.218698  0.499245  0.613115  0.726985  0.930401
  1435.530029  0.214688  0.491783  0.604188  0.716594  0.921328
  1439.069946  0.208761  0.485242  0.596585  0.707928  0.908911
  1442.599976  0.208655  0.479877  0.590335  0.700794  0.900938
  1446.140015  0.205573  0.475690  0.585377  0.695065  0.891084
  1449.680054  0.205447  0.472120  0.581279  0.690437  0.887806
  1453.219971  0.204285  0.469477  0.578189  0.686900  0.883151
  1456.760010  0.203062  0.467468  0.575858  0.684249  0.882463
  1460.300049  0.201999  0.465441  0.573638  0.681836  0.881793
  1463.839966  0.202665  0.464231  0.572252  0.680273  0.879709
  1467.380005  0.201317  0.463214  0.571179  0.679144  0.876709
  1470.920044  0.201108  0.462864  0.570817  0.678770  0.878918
  1474.459961  0.200423  0.462395  0.570488  0.678581  0.880874
  1478.010010  0.202438  0.462668  0.570890  0.679113  0.882846
  1481.550049  0.200687  0.462788  0.571169  0.679550  0.885391
  1485.089966  0.200904  0.463036  0.571546  0.680056  0.885815
  1488.640015  0.201337  0.463109  0.571735  0.680360  0.887450
  1492.180054  0.200127  0.463527  0.572329  0.681132  0.887425
  1495.729980  0.203363  0.463870  0.572942  0.682014  0.887784
  1499.270020  0.202242  0.464841  0.574158  0.683476  0.888629
  1502.819946  0.203264  0.465428  0.575050  0.684672  0.892768
  1506.369995  0.201051  0.466373  0.576213  0.686053  0.897109
  1509.910034  0.204287  0.467109  0.577275  0.687441  0.899776
  1513.459961  0.202436  0.468036  0.578435  0.688834  0.900021
  1517.010010  0.203709  0.468497  0.579172  0.689847  0.905907
  1520.560059  0.202630  0.469222  0.580150  0.691077  0.904992
  1524.109985  0.205017  0.469675  0.580891  0.692108  0.909118
  1527.660034  0.202714  0.470094  0.581444  0.692794  0.906502
  1531.209961  0.202988  0.469961  0.581487  0.693012  0.910765
  1534.760010  0.202210  0.470227  0.581812  0.693397  0.909633
  1538.319946  0.204733  0.469915  0.581630  0.693345  0.917127
  1541.869995  0.203388  0.469651  0.581397  0.693144  0.914004
  1545.420044  0.205863  0.469015  0.580746  0.692476  0.913480
  1548.979980  0.203261  0.468381  0.580078  0.691775  0.914315
  1552.530029  0.202231  0.467448  0.579145  0.690843  0.914712
  1556.089966  0.200250  0.466642  0.578268  0.689894  0.908356
  1559.640015  0.203575  0.465398  0.577030  0.688662  0.910173
  1563.199951  0.200326  0.464495  0.576046  0.687596  0.904548
  1566.750000  0.198449  0.463505  0.575002  0.686500  0.906079
  1570.310059  0.198554  0.462486  0.573972  0.685458  0.904007
  1573.869995  0.199383  0.461715  0.573165  0.684614  0.904322
  1577.430054  0.200116  0.461175  0.572637  0.684098  0.901474
  1580.989990  0.197681  0.460280  0.571731  0.683183  0.900522
  1584.550049  0.195469  0.459789  0.571253  0.682717  0.898454
  1588.109985  0.193342  0.459093  0.570577  0.682062  0.896430
  1591.670044  0.195711  0.459029  0.570509  0.681990  0.896083
  1595.229980  0.193201  0.458382  0.569895  0.681408  0.894587
  1598.790039  0.195040  0.458056  0.569628  0.681201  0.895814
  1602.349976  0.190582  0.457775  0.569245  0.680715  0.888974
  1605.920044  0.191051  0.457081  0.568604  0.680128  0.886406
  1609.479980  0.187213  0.456391  0.567883  0.679374  0.883616
  1613.040039  0.188981  0.455348  0.566768  0.678189  0.882508
  1616.609985  0.183918  0.454053  0.565332  0.676611  0.872408
  1620.170044  0.183578  0.452534  0.563576  0.674617  0.863878
  1623.739990  0.177365  0.450408  0.561264  0.672119  0.862406
  1627.310059  0.175226  0.448249  0.558942  0.669635  0.853545
  1630.869995  0.169500  0.445841  0.556473  0.667105  0.848183
  1634.439941  0.166973  0.444058  0.554652  0.665246  0.841855
  1638.010010  0.163183  0.442396  0.553010  0.663623  0.838427
  1641.579956  0.165220  0.441582  0.552219  0.662856  0.836710
  1645.150024  0.162185  0.441031  0.551657  0.662284  0.835187
  1648.709961  0.164723  0.440492  0.551149  0.661805  0.838383
  1652.290039  0.162151  0.439634  0.550084  0.660534  0.835613
  1655.859985  0.159508  0.437429  0.547706  0.657983  0.832432
  1659.430054  0.150624  0.433093  0.543410  0.653728  0.821794
  1663.000000  0.142023  0.426835  0.537922  0.649009  0.806314
  1666.569946  0.131400  0.418907  0.531577  0.644247  0.797583
  1670.140015  0.124962  0.410023  0.525090  0.640158  0.795041
  1673.719971  0.118584  0.402049  0.519355  0.636662  0.786208
  1677.290039  0.116459  0.396301  0.514958  0.633615  0.783290
  1680.869995  0.115278  0.392953  0.511744  0.630535  0.778800
  1684.439941  0.111235  0.391073  0.508794  0.626514  0.775315
  1688.020020  0.116907  0.389833  0.505464  0.621094  0.764262
  1691.589966  0.115875  0.388371  0.501459  0.614546  0.756024
  1695.170044  0.124060  0.387500  0.497829  0.608159  0.749033
  1698.750000  0.127739  0.387422  0.493989  0.600556  0.740962
  1702.329956  0.138448  0.388335  0.491435  0.594534  0.731311
  1705.910034  0.130832  0.388378  0.488079  0.587780  0.721581
  1709.489990  0.143765  0.387319  0.484258  0.581198  0.722843
  1713.069946  0.144107  0.384743  0.479013  0.573283  0.699188
  1716.650024  0.163613  0.382175  0.473474  0.564773  0.684693
  1720.229980  0.149883  0.378795  0.466935  0.555074  0.677462
