ENVI ASCII Plot File [Sun Apr 06 17:07:38 2025]
Column 1: Wavelength
Column 2: Min: ROI #72~~2##255,0,0
Column 3: Mean-StdDev: ROI #72~~21##0,200,0
Column 4: Mean: ROI #72~~0##0,0,0
Column 5: Mean+StdDev: ROI #72~~21##0,200,0
Column 6: Max: ROI #72~~2##255,0,0
   935.609985  0.243046  0.444935  0.521348  0.597762  0.733712
   939.059998  0.244820  0.447299  0.523906  0.600513  0.734933
   942.520020  0.241425  0.461983  0.549684  0.637386  0.815485
   945.979980  0.239917  0.473053  0.570524  0.667996  0.847545
   949.429993  0.225765  0.480339  0.584633  0.688927  0.901622
   952.890015  0.224330  0.487166  0.594684  0.702202  0.913873
   956.349976  0.218604  0.492120  0.601688  0.711256  0.942937
   959.809998  0.224332  0.495913  0.606495  0.717077  0.945287
   963.270020  0.224831  0.499535  0.610988  0.722440  0.955231
   966.729980  0.224658  0.502647  0.614892  0.727138  0.961963
   970.190002  0.228622  0.505904  0.618875  0.731846  0.969199
   973.650024  0.230161  0.508572  0.622231  0.735890  0.973964
   977.109985  0.229726  0.511410  0.625647  0.739883  0.979181
   980.580017  0.233303  0.514468  0.629284  0.744101  0.983118
   984.039978  0.232708  0.517415  0.632789  0.748164  0.987987
   987.510010  0.234303  0.520091  0.636054  0.752017  0.994292
   990.969971  0.237933  0.522973  0.639531  0.756089  1.000085
   994.429993  0.235908  0.525791  0.642971  0.760151  1.004344
   997.900024  0.237921  0.528954  0.646642  0.764330  1.008757
  1001.369995  0.239863  0.531576  0.649886  0.768196  1.014305
  1004.830017  0.244391  0.534499  0.653306  0.772113  1.020355
  1008.299988  0.244303  0.537352  0.656829  0.776306  1.025872
  1011.770020  0.247700  0.540515  0.660481  0.780447  1.028243
  1015.239990  0.244348  0.543263  0.663829  0.784394  1.037622
  1018.710022  0.248525  0.546044  0.667142  0.788240  1.039837
  1022.179993  0.249107  0.548917  0.670616  0.792316  1.045521
  1025.650024  0.252450  0.551863  0.674058  0.796253  1.050864
  1029.119995  0.252736  0.554603  0.677389  0.800176  1.057827
  1032.589966  0.254764  0.557498  0.680824  0.804149  1.060185
  1036.060059  0.254443  0.560170  0.684029  0.807889  1.065695
  1039.530029  0.257348  0.562862  0.687290  0.811718  1.071200
  1043.000000  0.259534  0.565606  0.690553  0.815500  1.076881
  1046.479980  0.260796  0.568464  0.693920  0.819376  1.079604
  1049.949951  0.263147  0.571062  0.697060  0.823058  1.084530
  1053.430054  0.264810  0.573622  0.700114  0.826605  1.088163
  1056.900024  0.265616  0.576273  0.703272  0.830271  1.091919
  1060.380005  0.266676  0.578815  0.706343  0.833872  1.097025
  1063.849976  0.268751  0.581336  0.709390  0.837444  1.104186
  1067.329956  0.269365  0.583808  0.712405  0.841003  1.109360
  1070.810059  0.271972  0.586281  0.715367  0.844454  1.112339
  1074.290039  0.272772  0.588760  0.718359  0.847958  1.115567
  1077.760010  0.274482  0.591138  0.721234  0.851330  1.119141
  1081.239990  0.275476  0.593508  0.724072  0.854637  1.123637
  1084.719971  0.276739  0.595755  0.726820  0.857885  1.128744
  1088.199951  0.275724  0.597841  0.729359  0.860878  1.132284
  1091.680054  0.275230  0.599874  0.731850  0.863826  1.136554
  1095.170044  0.277720  0.601897  0.734333  0.866768  1.141638
  1098.650024  0.279422  0.603917  0.736753  0.869589  1.144814
  1102.130005  0.279350  0.605599  0.738875  0.872152  1.147315
  1105.609985  0.280116  0.607147  0.740788  0.874428  1.150141
  1109.099976  0.281988  0.608629  0.742590  0.876550  1.152345
  1112.579956  0.283770  0.610076  0.744415  0.878753  1.154695
  1116.069946  0.284078  0.611489  0.746189  0.880889  1.153356
  1119.550049  0.283291  0.612765  0.747823  0.882881  1.152644
  1123.040039  0.284791  0.613764  0.749132  0.884501  1.149308
  1126.520020  0.284623  0.614473  0.750118  0.885762  1.144591
  1130.010010  0.285216  0.614609  0.750491  0.886374  1.132802
  1133.500000  0.285207  0.614226  0.750289  0.886353  1.114871
  1136.989990  0.283207  0.613251  0.749595  0.885940  1.111826
  1140.469971  0.282950  0.612492  0.749092  0.885692  1.111019
  1143.959961  0.284157  0.612363  0.749195  0.886026  1.112035
  1147.449951  0.285254  0.612956  0.749933  0.886909  1.112442
  1150.939941  0.284402  0.614094  0.751081  0.888068  1.113071
  1154.430054  0.284936  0.615464  0.752241  0.889019  1.112932
  1157.930054  0.285703  0.616148  0.752828  0.889508  1.129982
  1161.420044  0.285062  0.616299  0.752813  0.889327  1.143172
  1164.910034  0.286001  0.615797  0.752188  0.888580  1.152482
  1168.400024  0.285901  0.615333  0.751546  0.887759  1.156726
  1171.900024  0.286099  0.614693  0.750773  0.886853  1.156202
  1175.390015  0.285988  0.614042  0.749993  0.885945  1.150574
  1178.890015  0.284348  0.613400  0.749268  0.885136  1.151348
  1182.380005  0.285878  0.612942  0.748770  0.884598  1.153134
  1185.880005  0.284463  0.612793  0.748640  0.884486  1.148853
  1189.369995  0.285656  0.613040  0.749079  0.885119  1.145969
  1192.869995  0.283860  0.613704  0.750021  0.886337  1.148476
  1196.369995  0.285144  0.614809  0.751386  0.887964  1.145342
  1199.869995  0.285201  0.615908  0.752886  0.889865  1.144685
  1203.369995  0.286986  0.617289  0.754610  0.891931  1.142857
  1206.869995  0.286491  0.618690  0.756401  0.894112  1.146381
  1210.369995  0.288809  0.620392  0.758441  0.896490  1.148779
  1213.869995  0.289578  0.622378  0.760905  0.899432  1.153531
  1217.369995  0.292151  0.624789  0.763728  0.902668  1.162551
  1220.869995  0.292387  0.627066  0.766567  0.906067  1.176530
  1224.369995  0.294784  0.629606  0.769612  0.909618  1.183449
  1227.869995  0.295082  0.632031  0.772578  0.913125  1.191049
  1231.380005  0.298121  0.634487  0.775515  0.916544  1.197773
  1234.880005  0.299313  0.636734  0.778257  0.919780  1.204305
  1238.390015  0.301918  0.638944  0.780896  0.922848  1.208794
  1241.890015  0.300553  0.640815  0.783204  0.925593  1.215435
  1245.400024  0.303527  0.642577  0.785372  0.928166  1.221718
  1248.900024  0.303917  0.644170  0.787416  0.930661  1.228195
  1252.410034  0.304594  0.645806  0.789401  0.932997  1.230293
  1255.920044  0.304782  0.647352  0.791285  0.935218  1.233414
  1259.420044  0.305778  0.648653  0.792900  0.937147  1.234118
  1262.930054  0.308826  0.649833  0.794389  0.938944  1.239391
  1266.439941  0.306559  0.651245  0.796077  0.940909  1.242459
  1269.949951  0.309643  0.652242  0.797416  0.942589  1.248616
  1273.459961  0.310088  0.653470  0.798950  0.944429  1.250225
  1276.969971  0.312275  0.654648  0.800458  0.946269  1.250072
  1280.479980  0.309649  0.655964  0.802121  0.948279  1.253286
  1283.989990  0.313994  0.657072  0.803575  0.950078  1.255690
  1287.510010  0.310925  0.658470  0.805288  0.952107  1.259752
  1291.020020  0.315310  0.659347  0.806517  0.953687  1.260486
  1294.530029  0.315077  0.660394  0.807804  0.955214  1.261746
  1298.050049  0.315280  0.661158  0.808920  0.956683  1.265476
  1301.560059  0.313642  0.662063  0.810045  0.958026  1.264589
  1305.079956  0.316624  0.662814  0.810992  0.959169  1.267000
  1308.589966  0.314212  0.663403  0.811716  0.960030  1.271421
  1312.109985  0.316198  0.663614  0.812178  0.960742  1.270729
  1315.619995  0.313301  0.663742  0.812412  0.961083  1.275392
  1319.140015  0.313830  0.663264  0.812050  0.960837  1.269015
  1322.660034  0.315255  0.663001  0.811702  0.960404  1.268708
  1326.180054  0.313889  0.662006  0.810700  0.959393  1.267226
  1329.699951  0.314126  0.660736  0.809227  0.957717  1.267350
  1333.219971  0.314808  0.658574  0.806853  0.955131  1.264193
  1336.739990  0.311313  0.656093  0.803942  0.951792  1.262233
  1340.260010  0.310354  0.653073  0.800514  0.947954  1.255247
  1343.780029  0.309003  0.649951  0.796791  0.943632  1.246711
  1347.300049  0.306327  0.646297  0.792546  0.938794  1.239459
  1350.819946  0.304225  0.642513  0.788049  0.933585  1.232618
  1354.349976  0.302088  0.638889  0.783779  0.928670  1.229687
  1357.869995  0.302927  0.635639  0.779867  0.924095  1.221492
  1361.390015  0.300257  0.632446  0.776183  0.919919  1.216271
  1364.920044  0.297056  0.629295  0.772537  0.915778  1.212404
  1368.439941  0.293042  0.626017  0.768854  0.911691  1.206560
  1371.969971  0.294271  0.623131  0.765514  0.907897  1.198361
  1375.500000  0.290648  0.620783  0.762933  0.905083  1.191308
  1379.020020  0.292861  0.619093  0.760747  0.902401  1.182981
  1382.550049  0.290011  0.616792  0.758093  0.899395  1.180098
  1386.079956  0.289596  0.613652  0.754622  0.895592  1.171015
  1389.609985  0.284769  0.609814  0.750221  0.890627  1.168054
  1393.140015  0.284931  0.605789  0.745257  0.884725  1.155440
  1396.670044  0.280270  0.600496  0.739055  0.877613  1.148954
  1400.199951  0.279508  0.594653  0.731996  0.869338  1.134298
  1403.729980  0.272092  0.587437  0.723525  0.859614  1.126897
  1407.260010  0.267156  0.579095  0.713608  0.848121  1.105380
  1410.790039  0.262791  0.569657  0.702397  0.835137  1.089650
  1414.319946  0.258323  0.559349  0.690174  0.820999  1.070072
  1417.859985  0.254081  0.548818  0.677555  0.806291  1.055646
  1421.390015  0.248515  0.538196  0.664637  0.791077  1.033586
  1424.920044  0.239219  0.527634  0.652030  0.776426  1.018647
  1428.459961  0.236236  0.518063  0.640509  0.762956  1.001083
  1431.989990  0.230210  0.509350  0.630013  0.750676  0.988271
  1435.530029  0.226138  0.501929  0.621124  0.740319  0.972351
  1439.069946  0.224061  0.495893  0.613810  0.731728  0.963689
  1442.599976  0.220404  0.490904  0.607916  0.724929  0.958443
  1446.140015  0.219114  0.487226  0.603433  0.719640  0.955728
  1449.680054  0.217804  0.484180  0.599877  0.715574  0.947631
  1453.219971  0.217065  0.481837  0.597112  0.712387  0.946118
  1456.760010  0.215533  0.480376  0.595305  0.710234  0.946133
  1460.300049  0.216505  0.478893  0.593694  0.708495  0.943586
  1463.839966  0.214189  0.478264  0.592975  0.707687  0.945381
  1467.380005  0.214757  0.477761  0.592490  0.707219  0.943259
  1470.920044  0.214888  0.477792  0.592566  0.707339  0.946130
  1474.459961  0.218213  0.477713  0.592692  0.707671  0.943870
  1478.010010  0.215891  0.478238  0.593431  0.708624  0.949651
  1481.550049  0.215897  0.478648  0.594024  0.709401  0.948020
  1485.089966  0.214678  0.479172  0.594760  0.710347  0.952520
  1488.640015  0.215163  0.479549  0.595347  0.711144  0.949672
  1492.180054  0.218431  0.480219  0.596273  0.712328  0.955505
  1495.729980  0.218899  0.480768  0.597166  0.713564  0.956732
  1499.270020  0.217926  0.481885  0.598587  0.715289  0.963254
  1502.819946  0.218332  0.482761  0.599781  0.716801  0.967270
  1506.369995  0.219311  0.483832  0.601134  0.718436  0.968772
  1509.910034  0.221855  0.484753  0.602433  0.720113  0.970742
  1513.459961  0.219888  0.485856  0.603835  0.721815  0.975070
  1517.010010  0.220118  0.486544  0.604944  0.723345  0.978645
  1520.560059  0.222045  0.487517  0.606171  0.724826  0.977919
  1524.109985  0.222545  0.487967  0.606913  0.725860  0.979387
  1527.660034  0.221206  0.488460  0.607637  0.726814  0.982433
  1531.209961  0.221484  0.488384  0.607793  0.727202  0.980951
  1534.760010  0.222606  0.488633  0.608105  0.727577  0.988176
  1538.319946  0.222176  0.488424  0.608012  0.727601  0.986821
  1541.869995  0.222994  0.488338  0.607952  0.727566  0.989055
  1545.420044  0.219809  0.487663  0.607366  0.727069  0.987665
  1548.979980  0.223622  0.487096  0.606720  0.726344  0.985692
  1552.530029  0.218593  0.486258  0.605845  0.725432  0.985610
  1556.089966  0.221694  0.485483  0.605002  0.724521  0.987722
  1559.640015  0.220090  0.484348  0.603907  0.723466  0.987057
  1563.199951  0.220324  0.483537  0.603019  0.722500  0.983055
  1566.750000  0.219002  0.482662  0.602118  0.721573  0.986213
  1570.310059  0.219317  0.481712  0.601140  0.720567  0.981107
  1573.869995  0.216664  0.480977  0.600447  0.719917  0.980256
  1577.430054  0.220089  0.480491  0.599883  0.719274  0.978946
  1580.989990  0.217055  0.479766  0.599207  0.718647  0.980245
  1584.550049  0.217974  0.479308  0.598767  0.718225  0.975599
  1588.109985  0.217259  0.478666  0.598268  0.717871  0.978084
  1591.670044  0.218178  0.478831  0.598408  0.717986  0.973645
  1595.229980  0.217439  0.478213  0.597843  0.717472  0.974106
  1598.790039  0.218494  0.477995  0.597711  0.717428  0.969959
  1602.349976  0.217879  0.477718  0.597428  0.717138  0.967983
  1605.920044  0.217221  0.477136  0.596980  0.716824  0.962494
  1609.479980  0.216166  0.476605  0.596467  0.716330  0.961263
  1613.040039  0.217156  0.475558  0.595422  0.715285  0.957217
  1616.609985  0.216628  0.474458  0.594200  0.713942  0.950455
  1620.170044  0.216223  0.472993  0.592688  0.712383  0.934152
  1623.739990  0.212374  0.470764  0.590390  0.710016  0.914255
  1627.310059  0.211639  0.468784  0.588277  0.707771  0.913127
  1630.869995  0.212735  0.466548  0.586078  0.705607  0.915316
  1634.439941  0.211012  0.464899  0.584448  0.703997  0.915495
  1638.010010  0.211305  0.463472  0.583224  0.702977  0.919667
  1641.579956  0.208215  0.462882  0.582759  0.702636  0.916365
  1645.150024  0.212875  0.462461  0.582362  0.702262  0.907864
  1648.709961  0.211214  0.462133  0.582104  0.702075  0.912720
  1652.290039  0.209470  0.461902  0.581721  0.701540  0.912631
  1655.859985  0.207760  0.459708  0.579496  0.699284  0.910490
  1659.430054  0.205627  0.455420  0.575383  0.695347  0.904821
  1663.000000  0.192158  0.448840  0.569744  0.690648  0.905175
  1666.569946  0.181465  0.441002  0.563445  0.685888  0.896115
  1670.140015  0.170527  0.432412  0.556996  0.681581  0.891211
  1673.719971  0.167545  0.424751  0.551235  0.677718  0.889863
  1677.290039  0.161763  0.418995  0.546610  0.674225  0.882154
  1680.869995  0.161384  0.415443  0.542973  0.670503  0.880986
  1684.439941  0.161581  0.413523  0.539898  0.666273  0.867083
  1688.020020  0.167722  0.412046  0.536411  0.660776  0.865983
  1691.589966  0.162577  0.410325  0.532135  0.653945  0.845459
  1695.170044  0.173626  0.409063  0.528032  0.647001  0.842730
  1698.750000  0.174584  0.408343  0.523794  0.639245  0.825214
  1702.329956  0.176941  0.408590  0.520520  0.632450  0.828762
  1705.910034  0.186900  0.407777  0.516519  0.625261  0.800453
  1709.489990  0.182266  0.406355  0.512164  0.617973  0.801687
  1713.069946  0.187427  0.403787  0.506266  0.608746  0.775247
  1716.650024  0.202451  0.400497  0.499744  0.598991  0.761914
  1720.229980  0.199614  0.396337  0.492375  0.588414  0.742220
