ENVI ASCII Plot File [Sun Apr 06 16:35:18 2025]
Column 1: Wavelength
Column 2: Min: ROI #40~~2##255,0,0
Column 3: Mean-StdDev: ROI #40~~21##0,200,0
Column 4: Mean: ROI #40~~0##0,0,0
Column 5: Mean+StdDev: ROI #40~~21##0,200,0
Column 6: Max: ROI #40~~2##255,0,0
   935.609985  0.324130  0.518897  0.580505  0.642112  0.773930
   939.059998  0.342598  0.522315  0.583657  0.644999  0.770473
   942.520020  0.334503  0.543588  0.614556  0.685524  0.817995
   945.979980  0.335877  0.556527  0.637611  0.718694  0.889128
   949.429993  0.323324  0.565025  0.652812  0.740598  0.912475
   952.890015  0.330126  0.572489  0.663356  0.754223  0.939410
   956.349976  0.324084  0.577864  0.670598  0.763332  0.953584
   959.809998  0.329457  0.581778  0.675489  0.769199  0.960967
   963.270020  0.325812  0.585308  0.679786  0.774265  0.974469
   966.729980  0.330182  0.588300  0.683454  0.778609  0.981883
   970.190002  0.327608  0.591520  0.687240  0.782960  0.986905
   973.650024  0.332029  0.594177  0.690340  0.786503  0.989833
   977.109985  0.331565  0.596895  0.693529  0.790164  0.999431
   980.580017  0.330980  0.599840  0.696823  0.793807  1.003284
   984.039978  0.336577  0.602611  0.700030  0.797449  1.007710
   987.510010  0.337709  0.605156  0.702992  0.800829  1.009360
   990.969971  0.339427  0.607968  0.706210  0.804453  1.015498
   994.429993  0.342369  0.610647  0.709313  0.807979  1.021531
   997.900024  0.341451  0.613547  0.712578  0.811609  1.027124
  1001.369995  0.344756  0.616205  0.715653  0.815102  1.031814
  1004.830017  0.344044  0.618956  0.718776  0.818596  1.036306
  1008.299988  0.347412  0.621745  0.721990  0.822235  1.042573
  1011.770020  0.350037  0.624659  0.725255  0.825851  1.048730
  1015.239990  0.351044  0.627335  0.728307  0.829279  1.050630
  1018.710022  0.352698  0.629996  0.731354  0.832712  1.055452
  1022.179993  0.354269  0.632718  0.734512  0.836306  1.060655
  1025.650024  0.356161  0.635427  0.737613  0.839799  1.066540
  1029.119995  0.358561  0.638094  0.740685  0.843276  1.070416
  1032.589966  0.360698  0.640890  0.743834  0.846779  1.074502
  1036.060059  0.361599  0.643398  0.746744  0.850091  1.079605
  1039.530029  0.364491  0.645929  0.749675  0.853422  1.084230
  1043.000000  0.365880  0.648545  0.752690  0.856835  1.087615
  1046.479980  0.368113  0.651196  0.755710  0.860225  1.091321
  1049.949951  0.369634  0.653685  0.758580  0.863475  1.096998
  1053.430054  0.370047  0.656096  0.761367  0.866637  1.102892
  1056.900024  0.371949  0.658516  0.764174  0.869832  1.107348
  1060.380005  0.374323  0.660900  0.766922  0.872944  1.111100
  1063.849976  0.375038  0.663267  0.769654  0.876042  1.115013
  1067.329956  0.376711  0.665600  0.772335  0.879070  1.119572
  1070.810059  0.377948  0.667896  0.774959  0.882022  1.124894
  1074.290039  0.379193  0.670160  0.777603  0.885045  1.129551
  1077.760010  0.380398  0.672299  0.780124  0.887949  1.133557
  1081.239990  0.381574  0.674474  0.782604  0.890734  1.136462
  1084.719971  0.383671  0.676636  0.785070  0.893505  1.139324
  1088.199951  0.384768  0.678568  0.787330  0.896091  1.143042
  1091.680054  0.385281  0.680384  0.789467  0.898550  1.148190
  1095.170044  0.386314  0.682264  0.791663  0.901061  1.150787
  1098.650024  0.387202  0.684091  0.793757  0.903423  1.152997
  1102.130005  0.388036  0.685622  0.795554  0.905485  1.156736
  1105.609985  0.389770  0.686984  0.797168  0.907352  1.156425
  1109.099976  0.390508  0.688281  0.798679  0.909077  1.157859
  1112.579956  0.390399  0.689532  0.800200  0.910869  1.158381
  1116.069946  0.392212  0.690745  0.801696  0.912648  1.158504
  1119.550049  0.392043  0.691818  0.803002  0.914186  1.156319
  1123.040039  0.393951  0.692696  0.804096  0.915496  1.150906
  1126.520020  0.393511  0.693257  0.804851  0.916445  1.144278
  1130.010010  0.392900  0.693120  0.804946  0.916772  1.131385
  1133.500000  0.389953  0.692490  0.804552  0.916614  1.111564
  1136.989990  0.388565  0.691341  0.803788  0.916236  1.089368
  1140.469971  0.386342  0.690383  0.803227  0.916072  1.086833
  1143.959961  0.385976  0.689853  0.803031  0.916208  1.086994
  1147.449951  0.384779  0.690029  0.803303  0.916578  1.088410
  1150.939941  0.386520  0.690878  0.803958  0.917039  1.091771
  1154.430054  0.387821  0.691841  0.804569  0.917296  1.101383
  1157.930054  0.390122  0.692148  0.804595  0.917042  1.121282
  1161.420044  0.389236  0.691954  0.804049  0.916145  1.135418
  1164.910034  0.387928  0.691090  0.803016  0.914942  1.140395
  1168.400024  0.386978  0.690205  0.801970  0.913736  1.144027
  1171.900024  0.387626  0.689338  0.800954  0.912570  1.146089
  1175.390015  0.388426  0.688384  0.799865  0.911345  1.146140
  1178.890015  0.387837  0.687453  0.798837  0.910222  1.145032
  1182.380005  0.385345  0.686800  0.798147  0.909494  1.143360
  1185.880005  0.385944  0.686433  0.797813  0.909193  1.137656
  1189.369995  0.383522  0.686611  0.798098  0.909584  1.137221
  1192.869995  0.384559  0.687189  0.798896  0.910602  1.136870
  1196.369995  0.385195  0.688203  0.800143  0.912083  1.132829
  1199.869995  0.386171  0.689266  0.801544  0.913821  1.129634
  1203.369995  0.386657  0.690505  0.803096  0.915688  1.129136
  1206.869995  0.388483  0.691771  0.804669  0.917568  1.128958
  1210.369995  0.389507  0.693365  0.806529  0.919692  1.133904
  1213.869995  0.387831  0.695252  0.808741  0.922231  1.139927
  1217.369995  0.388909  0.697428  0.811262  0.925095  1.151323
  1220.869995  0.387485  0.699524  0.813815  0.928105  1.159399
  1224.369995  0.394904  0.701844  0.816458  0.931072  1.165497
  1227.869995  0.394728  0.704179  0.819173  0.934167  1.172621
  1231.380005  0.394851  0.706374  0.821713  0.937053  1.180017
  1234.880005  0.395261  0.708335  0.824028  0.939721  1.190669
  1238.390015  0.399690  0.710321  0.826300  0.942280  1.191690
  1241.890015  0.398368  0.711948  0.828297  0.944646  1.198320
  1245.400024  0.399749  0.713552  0.830247  0.946943  1.201529
  1248.900024  0.397450  0.714963  0.831968  0.948974  1.210510
  1252.410034  0.400763  0.716268  0.833469  0.950670  1.208711
  1255.920044  0.400297  0.717513  0.835034  0.952555  1.212853
  1259.420044  0.399649  0.718631  0.836384  0.954137  1.213954
  1262.930054  0.403071  0.719602  0.837613  0.955623  1.216975
  1266.439941  0.405350  0.720749  0.838968  0.957187  1.222044
  1269.949951  0.404300  0.721567  0.840085  0.958602  1.220698
  1273.459961  0.405414  0.722733  0.841435  0.960137  1.226462
  1276.969971  0.405408  0.723663  0.842664  0.961665  1.230548
  1280.479980  0.403749  0.724779  0.844028  0.963276  1.230811
  1283.989990  0.405066  0.725761  0.845303  0.964844  1.230053
  1287.510010  0.406162  0.726830  0.846615  0.966400  1.235083
  1291.020020  0.405429  0.727659  0.847768  0.967877  1.236433
  1294.530029  0.407021  0.728614  0.848890  0.969166  1.241931
  1298.050049  0.406258  0.729132  0.849708  0.970284  1.240864
  1301.560059  0.406322  0.729864  0.850565  0.971266  1.236032
  1305.079956  0.409257  0.730326  0.851234  0.972142  1.237069
  1308.589966  0.405807  0.730746  0.851745  0.972744  1.240907
  1312.109985  0.407223  0.730700  0.851873  0.973046  1.241583
  1315.619995  0.405724  0.730714  0.851989  0.973264  1.241995
  1319.140015  0.406071  0.730234  0.851596  0.972958  1.242081
  1322.660034  0.403085  0.729715  0.851051  0.972386  1.241537
  1326.180054  0.405797  0.728474  0.849765  0.971055  1.236869
  1329.699951  0.402837  0.726910  0.848097  0.969283  1.234534
  1333.219971  0.404052  0.724567  0.845545  0.966522  1.233038
  1336.739990  0.396097  0.721905  0.842597  0.963289  1.224689
  1340.260010  0.398091  0.718913  0.839299  0.959685  1.218153
  1343.780029  0.393856  0.715469  0.835388  0.955307  1.209352
  1347.300049  0.392896  0.711560  0.831068  0.950575  1.202332
  1350.819946  0.388326  0.707670  0.826685  0.945700  1.199618
  1354.349976  0.384674  0.703944  0.822455  0.940966  1.190813
  1357.869995  0.381567  0.700441  0.818421  0.936400  1.184356
  1361.390015  0.380762  0.697075  0.814582  0.932090  1.180220
  1364.920044  0.375338  0.693930  0.811136  0.928342  1.172582
  1368.439941  0.374705  0.690819  0.807747  0.924676  1.164492
  1371.969971  0.374397  0.688024  0.804708  0.921393  1.158334
  1375.500000  0.369220  0.685715  0.802299  0.918883  1.152669
  1379.020020  0.367644  0.683759  0.799990  0.916222  1.144183
  1382.550049  0.367392  0.681406  0.797317  0.913228  1.135276
  1386.079956  0.364390  0.678370  0.794088  0.909807  1.130751
  1389.609985  0.363037  0.674563  0.789916  0.905268  1.124153
  1393.140015  0.360959  0.670300  0.784842  0.899383  1.111726
  1396.670044  0.353607  0.664971  0.778829  0.892688  1.102384
  1400.199951  0.352924  0.659082  0.771998  0.884914  1.091900
  1403.729980  0.345582  0.651889  0.763817  0.875744  1.078841
  1407.260010  0.344270  0.643581  0.754378  0.865175  1.067073
  1410.790039  0.335283  0.634340  0.743892  0.853443  1.050743
  1414.319946  0.329340  0.624153  0.732357  0.840561  1.035029
  1417.859985  0.321469  0.613574  0.720263  0.826951  1.015203
  1421.390015  0.317179  0.603191  0.708238  0.813285  1.002108
  1424.920044  0.307795  0.592752  0.696250  0.799749  0.987619
  1428.459961  0.306557  0.583282  0.685291  0.787301  0.972260
  1431.989990  0.297754  0.574424  0.675093  0.775763  0.958705
  1435.530029  0.298673  0.567029  0.666577  0.766125  0.945804
  1439.069946  0.293716  0.560656  0.659302  0.757947  0.937244
  1442.599976  0.290632  0.555401  0.653334  0.751267  0.932001
  1446.140015  0.284642  0.551274  0.648621  0.745969  0.929848
  1449.680054  0.282905  0.548037  0.644962  0.741887  0.921855
  1453.219971  0.282506  0.545506  0.642083  0.738661  0.920574
  1456.760010  0.281200  0.543531  0.639883  0.736235  0.919762
  1460.300049  0.279910  0.541739  0.637943  0.734147  0.919679
  1463.839966  0.280224  0.540750  0.636859  0.732968  0.915196
  1467.380005  0.279058  0.539892  0.636027  0.732161  0.915849
  1470.920044  0.275606  0.539731  0.635892  0.732053  0.917176
  1474.459961  0.277602  0.539403  0.635784  0.732165  0.919661
  1478.010010  0.276533  0.539842  0.636376  0.732911  0.921268
  1481.550049  0.277791  0.540082  0.636823  0.733563  0.924630
  1485.089966  0.275878  0.540549  0.637444  0.734339  0.924764
  1488.640015  0.276705  0.540707  0.637808  0.734909  0.926160
  1492.180054  0.274395  0.541363  0.638658  0.735952  0.926916
  1495.729980  0.278342  0.541917  0.639451  0.736985  0.931583
  1499.270020  0.277378  0.542967  0.640734  0.738501  0.931549
  1502.819946  0.277008  0.543722  0.641797  0.739871  0.937260
  1506.369995  0.275261  0.544746  0.643079  0.741412  0.934650
  1509.910034  0.278414  0.545602  0.644227  0.742853  0.939978
  1513.459961  0.276249  0.546381  0.645291  0.744202  0.939933
  1517.010010  0.277956  0.546965  0.646155  0.745346  0.945649
  1520.560059  0.277127  0.547679  0.647151  0.746623  0.947679
  1524.109985  0.276571  0.548110  0.647893  0.747677  0.946713
  1527.660034  0.275847  0.548562  0.648494  0.748426  0.951534
  1531.209961  0.276264  0.548402  0.648593  0.748784  0.951306
  1534.760010  0.277246  0.548680  0.648904  0.749127  0.954915
  1538.319946  0.276664  0.548402  0.648772  0.749142  0.952746
  1541.869995  0.276929  0.548187  0.648596  0.749004  0.953305
  1545.420044  0.275249  0.547501  0.647985  0.748469  0.951426
  1548.979980  0.274119  0.546801  0.647260  0.747719  0.952168
  1552.530029  0.272608  0.545945  0.646449  0.746952  0.951282
  1556.089966  0.268943  0.545101  0.645557  0.746013  0.951770
  1559.640015  0.274278  0.543903  0.644394  0.744884  0.948297
  1563.199951  0.270019  0.542992  0.643523  0.744054  0.948620
  1566.750000  0.270891  0.542117  0.642633  0.743148  0.947230
  1570.310059  0.271338  0.541105  0.641652  0.742199  0.950292
  1573.869995  0.269339  0.540261  0.640811  0.741361  0.949370
  1577.430054  0.268636  0.539771  0.640326  0.740881  0.944378
  1580.989990  0.264557  0.539002  0.639619  0.740236  0.942683
  1584.550049  0.267124  0.538590  0.639276  0.739962  0.945712
  1588.109985  0.263843  0.537882  0.638628  0.739374  0.942412
  1591.670044  0.266588  0.538002  0.638774  0.739547  0.939399
  1595.229980  0.260590  0.537403  0.638299  0.739196  0.939684
  1598.790039  0.265373  0.537159  0.638113  0.739067  0.937144
  1602.349976  0.262211  0.536741  0.637817  0.738893  0.933535
  1605.920044  0.265899  0.536330  0.637452  0.738575  0.930695
  1609.479980  0.260715  0.535819  0.636948  0.738077  0.927702
  1613.040039  0.261603  0.534854  0.636075  0.737296  0.926015
  1616.609985  0.258204  0.533597  0.634782  0.735966  0.916679
  1620.170044  0.261130  0.532301  0.633454  0.734606  0.908380
  1623.739990  0.256064  0.530226  0.631439  0.732652  0.905661
  1627.310059  0.256442  0.528276  0.629559  0.730842  0.906545
  1630.869995  0.253131  0.526028  0.627496  0.728964  0.904521
  1634.439941  0.253004  0.524339  0.626019  0.727699  0.901073
  1638.010010  0.248260  0.522766  0.624727  0.726688  0.897128
  1641.579956  0.245004  0.522061  0.624213  0.726366  0.897259
  1645.150024  0.249263  0.521605  0.623857  0.726109  0.897705
  1648.709961  0.243671  0.521204  0.623435  0.725666  0.900356
  1652.290039  0.245170  0.520744  0.622750  0.724755  0.897602
  1655.859985  0.240455  0.518648  0.620670  0.722693  0.895139
  1659.430054  0.237500  0.514383  0.617028  0.719673  0.889558
  1663.000000  0.226592  0.507704  0.612025  0.716346  0.884739
  1666.569946  0.218906  0.499462  0.606380  0.713298  0.880310
  1670.140015  0.207205  0.490048  0.600510  0.710972  0.878868
  1673.719971  0.197874  0.481491  0.595111  0.708730  0.874610
  1677.290039  0.188297  0.475310  0.590882  0.706454  0.870715
  1680.869995  0.183476  0.471650  0.587590  0.703530  0.862177
  1684.439941  0.184285  0.469863  0.584775  0.699686  0.857953
  1688.020020  0.186200  0.468634  0.581249  0.693863  0.851163
  1691.589966  0.184722  0.467101  0.576956  0.686810  0.836384
  1695.170044  0.188612  0.466286  0.572910  0.679534  0.832180
  1698.750000  0.189200  0.465777  0.568449  0.671121  0.815268
  1702.329956  0.200903  0.466628  0.564868  0.663109  0.815213
  1705.910034  0.201536  0.466379  0.561016  0.655654  0.798461
  1709.489990  0.203621  0.465028  0.556372  0.647715  0.796896
  1713.069946  0.209358  0.461223  0.549593  0.637963  0.772145
  1716.650024  0.211315  0.457306  0.542536  0.627766  0.766616
  1720.229980  0.217015  0.452320  0.534441  0.616563  0.736076
