ENVI ASCII Plot File [Sun Apr 06 16:10:53 2025]
Column 1: Wavelength
Column 2: Min: ROI #13~~2##255,0,0
Column 3: Mean-StdDev: ROI #13~~21##0,200,0
Column 4: Mean: ROI #13~~0##0,0,0
Column 5: Mean+StdDev: ROI #13~~21##0,200,0
Column 6: Max: ROI #13~~2##255,0,0
   935.609985  0.251283  0.414427  0.487824  0.561220  0.725599
   939.059998  0.254947  0.416916  0.490483  0.564050  0.718124
   942.520020  0.240158  0.432539  0.516316  0.600093  0.746242
   945.979980  0.240258  0.442604  0.536202  0.629800  0.803761
   949.429993  0.233108  0.450541  0.550400  0.650258  0.822234
   952.890015  0.242157  0.457687  0.560759  0.663831  0.849998
   956.349976  0.239233  0.463057  0.568124  0.673191  0.860604
   959.809998  0.247645  0.467332  0.573478  0.679624  0.867495
   963.270020  0.246894  0.471072  0.578100  0.685127  0.873778
   966.729980  0.251167  0.474452  0.582332  0.690212  0.882736
   970.190002  0.251269  0.478059  0.586669  0.695280  0.888347
   973.650024  0.257223  0.480828  0.590142  0.699456  0.894234
   977.109985  0.255411  0.483984  0.593900  0.703815  0.896631
   980.580017  0.257009  0.487099  0.597719  0.708339  0.902998
   984.039978  0.258827  0.490270  0.601521  0.712772  0.907276
   987.510010  0.263353  0.493205  0.605027  0.716849  0.915110
   990.969971  0.263354  0.496322  0.608783  0.721244  0.918599
   994.429993  0.265049  0.499309  0.612400  0.725491  0.922844
   997.900024  0.267667  0.502527  0.616237  0.729948  0.928024
  1001.369995  0.268446  0.505437  0.619757  0.734078  0.934445
  1004.830017  0.268032  0.508472  0.623417  0.738362  0.941339
  1008.299988  0.270503  0.511586  0.627122  0.742657  0.945086
  1011.770020  0.272443  0.514869  0.630983  0.747098  0.950503
  1015.239990  0.273565  0.517799  0.634539  0.751280  0.952749
  1018.710022  0.274930  0.520778  0.638080  0.755382  0.958241
  1022.179993  0.274292  0.523801  0.641738  0.759676  0.962582
  1025.650024  0.276263  0.526844  0.645385  0.763926  0.970852
  1029.119995  0.276595  0.529768  0.648941  0.768113  0.974145
  1032.589966  0.278952  0.532907  0.652630  0.772352  0.979803
  1036.060059  0.280031  0.535832  0.656101  0.776370  0.982695
  1039.530029  0.282777  0.538655  0.659548  0.780441  0.989028
  1043.000000  0.283973  0.541551  0.663030  0.784509  0.992410
  1046.479980  0.284665  0.544591  0.666615  0.788639  0.998462
  1049.949951  0.285164  0.547420  0.670004  0.792587  1.004280
  1053.430054  0.287433  0.550103  0.673266  0.796429  1.010446
  1056.900024  0.288435  0.552908  0.676628  0.800347  1.014686
  1060.380005  0.290978  0.555649  0.679901  0.804153  1.019928
  1063.849976  0.293542  0.558347  0.683163  0.807980  1.025893
  1067.329956  0.294586  0.561021  0.686392  0.811764  1.029966
  1070.810059  0.295447  0.563679  0.689557  0.815435  1.033526
  1074.290039  0.295051  0.566385  0.692763  0.819141  1.037678
  1077.760010  0.295568  0.568911  0.695794  0.822678  1.041682
  1081.239990  0.296501  0.571420  0.698821  0.826221  1.045825
  1084.719971  0.298633  0.573894  0.701796  0.829697  1.051855
  1088.199951  0.299200  0.576238  0.704600  0.832963  1.055087
  1091.680054  0.299115  0.578418  0.707278  0.836138  1.058879
  1095.170044  0.299450  0.580661  0.709989  0.839317  1.061680
  1098.650024  0.301586  0.582912  0.712663  0.842414  1.064566
  1102.130005  0.302095  0.584840  0.715018  0.845195  1.068607
  1105.609985  0.301190  0.586675  0.717222  0.847769  1.071372
  1109.099976  0.302440  0.588404  0.719295  0.850187  1.073963
  1112.579956  0.302172  0.590127  0.721413  0.852700  1.076513
  1116.069946  0.302550  0.591802  0.723458  0.855114  1.076682
  1119.550049  0.302919  0.593343  0.725332  0.857322  1.075852
  1123.040039  0.302251  0.594672  0.726940  0.859209  1.074652
  1126.520020  0.301041  0.595756  0.728241  0.860726  1.067822
  1130.010010  0.300160  0.596185  0.728871  0.861558  1.062343
  1133.500000  0.296108  0.596198  0.729004  0.861809  1.059333
  1136.989990  0.293838  0.595632  0.728643  0.861654  1.052618
  1140.469971  0.292409  0.595314  0.728541  0.861768  1.046140
  1143.959961  0.293919  0.595369  0.728837  0.862305  1.044597
  1147.449951  0.294960  0.596028  0.729655  0.863281  1.048137
  1150.939941  0.297116  0.597225  0.730956  0.864687  1.053560
  1154.430054  0.296644  0.598524  0.732261  0.865998  1.059818
  1157.930054  0.300817  0.599123  0.732878  0.866634  1.067922
  1161.420044  0.300902  0.599327  0.732986  0.866645  1.071579
  1164.910034  0.301709  0.598909  0.732517  0.866126  1.076034
  1168.400024  0.301381  0.598552  0.732080  0.865608  1.078471
  1171.900024  0.301653  0.598069  0.731509  0.864949  1.080175
  1175.390015  0.300922  0.597520  0.730865  0.864210  1.078478
  1178.890015  0.300639  0.596980  0.730237  0.863494  1.077634
  1182.380005  0.300082  0.596621  0.729766  0.862911  1.076566
  1185.880005  0.299502  0.596557  0.729739  0.862922  1.074627
  1189.369995  0.299547  0.596951  0.730277  0.863603  1.076147
  1192.869995  0.299252  0.597743  0.731296  0.864850  1.073504
  1196.369995  0.299422  0.598975  0.732801  0.866628  1.075216
  1199.869995  0.300193  0.600246  0.734409  0.868572  1.074883
  1203.369995  0.300390  0.601659  0.736174  0.870689  1.080480
  1206.869995  0.300395  0.603210  0.738080  0.872950  1.081529
  1210.369995  0.303262  0.605028  0.740285  0.875542  1.086091
  1213.869995  0.301258  0.607154  0.742889  0.878624  1.087935
  1217.369995  0.306045  0.609710  0.745944  0.882177  1.096007
  1220.869995  0.306529  0.612173  0.748997  0.885821  1.100138
  1224.369995  0.307485  0.614886  0.752293  0.889699  1.110273
  1227.869995  0.307582  0.617579  0.755561  0.893543  1.118606
  1231.380005  0.313963  0.620122  0.758610  0.897098  1.127049
  1234.880005  0.312438  0.622542  0.761468  0.900394  1.132738
  1238.390015  0.314809  0.624881  0.764304  0.903727  1.138715
  1241.890015  0.315742  0.626935  0.766794  0.906654  1.144597
  1245.400024  0.319876  0.628778  0.769071  0.909365  1.149134
  1248.900024  0.314712  0.630546  0.771259  0.911972  1.151698
  1252.410034  0.320101  0.632264  0.773296  0.914329  1.158748
  1255.920044  0.318561  0.633837  0.775223  0.916610  1.160664
  1259.420044  0.320067  0.635314  0.777055  0.918797  1.165666
  1262.930054  0.320513  0.636601  0.778648  0.920694  1.168523
  1266.439941  0.321232  0.638091  0.780397  0.922703  1.171741
  1269.949951  0.321739  0.639342  0.781971  0.924600  1.173338
  1273.459961  0.322282  0.640730  0.783671  0.926612  1.175905
  1276.969971  0.322309  0.641909  0.785228  0.928547  1.178214
  1280.479980  0.322825  0.643380  0.786959  0.930538  1.183525
  1283.989990  0.321783  0.644647  0.788617  0.932587  1.185994
  1287.510010  0.323291  0.646035  0.790309  0.934584  1.188453
  1291.020020  0.323432  0.647079  0.791729  0.936380  1.188388
  1294.530029  0.324356  0.648468  0.793355  0.938242  1.190941
  1298.050049  0.323499  0.649197  0.794492  0.939787  1.194960
  1301.560059  0.321140  0.650279  0.795689  0.941099  1.194436
  1305.079956  0.327040  0.651071  0.796674  0.942277  1.196149
  1308.589966  0.325524  0.651862  0.797615  0.943369  1.197065
  1312.109985  0.326831  0.652154  0.798144  0.944134  1.198417
  1315.619995  0.324722  0.652462  0.798526  0.944591  1.200506
  1319.140015  0.327113  0.652151  0.798330  0.944509  1.200260
  1322.660034  0.322849  0.651994  0.798093  0.944192  1.195738
  1326.180054  0.324945  0.650988  0.797087  0.943185  1.195388
  1329.699951  0.322246  0.649776  0.795693  0.941610  1.194724
  1333.219971  0.323499  0.647768  0.793453  0.939138  1.190755
  1336.739990  0.320260  0.645430  0.790722  0.936014  1.186524
  1340.260010  0.318738  0.642618  0.787531  0.932443  1.181532
  1343.780029  0.318029  0.639573  0.783894  0.928215  1.169751
  1347.300049  0.315190  0.635823  0.779605  0.923386  1.166125
  1350.819946  0.311656  0.632058  0.775186  0.918314  1.158727
  1354.349976  0.313030  0.628462  0.770948  0.913434  1.156916
  1357.869995  0.308592  0.625093  0.766900  0.908707  1.151742
  1361.390015  0.308804  0.621726  0.762955  0.904185  1.146608
  1364.920044  0.305810  0.618711  0.759405  0.900099  1.138255
  1368.439941  0.304761  0.615525  0.755811  0.896096  1.132802
  1371.969971  0.300301  0.612623  0.752561  0.892498  1.124363
  1375.500000  0.299642  0.610383  0.750041  0.889700  1.117325
  1379.020020  0.300274  0.608496  0.747679  0.886862  1.111249
  1382.550049  0.298900  0.606181  0.744894  0.883606  1.105379
  1386.079956  0.296104  0.603177  0.741561  0.879945  1.103663
  1389.609985  0.295018  0.599520  0.737297  0.875073  1.093568
  1393.140015  0.293820  0.595361  0.732228  0.869095  1.083645
  1396.670044  0.287213  0.590078  0.726013  0.861947  1.072660
  1400.199951  0.284303  0.584224  0.719039  0.853853  1.064448
  1403.729980  0.280962  0.577072  0.710487  0.843903  1.047898
  1407.260010  0.273477  0.568804  0.700629  0.832453  1.034367
  1410.790039  0.269623  0.559372  0.689459  0.819547  1.019388
  1414.319946  0.263510  0.549245  0.677413  0.805580  1.003805
  1417.859985  0.260406  0.538494  0.664658  0.790821  0.982864
  1421.390015  0.252015  0.528002  0.651999  0.775996  0.964557
  1424.920044  0.248814  0.517453  0.639343  0.761233  0.946664
  1428.459961  0.243987  0.507814  0.627753  0.747692  0.929381
  1431.989990  0.234760  0.498918  0.617050  0.735182  0.916209
  1435.530029  0.237111  0.491473  0.608057  0.724641  0.902133
  1439.069946  0.229296  0.484964  0.600355  0.715745  0.889225
  1442.599976  0.227772  0.479768  0.594134  0.708500  0.884850
  1446.140015  0.227632  0.475731  0.589255  0.702780  0.875596
  1449.680054  0.221342  0.472517  0.585459  0.698401  0.871042
  1453.219971  0.221342  0.470036  0.582485  0.694933  0.868085
  1456.760010  0.222102  0.468137  0.580158  0.692180  0.869020
  1460.300049  0.218918  0.466381  0.578234  0.690086  0.865026
  1463.839966  0.219775  0.465418  0.577153  0.688887  0.863223
  1467.380005  0.217225  0.464571  0.576276  0.687982  0.862050
  1470.920044  0.217136  0.464512  0.576183  0.687855  0.863262
  1474.459961  0.218297  0.464226  0.576074  0.687923  0.863433
  1478.010010  0.219161  0.464720  0.576687  0.688653  0.866625
  1481.550049  0.217040  0.464983  0.577132  0.689280  0.870204
  1485.089966  0.221146  0.465371  0.577738  0.690105  0.867447
  1488.640015  0.219188  0.465631  0.578179  0.690728  0.868598
  1492.180054  0.220304  0.466314  0.579077  0.691840  0.873865
  1495.729980  0.220193  0.466876  0.579923  0.692970  0.875260
  1499.270020  0.220792  0.467992  0.581331  0.694669  0.875276
  1502.819946  0.220613  0.468854  0.582545  0.696236  0.881365
  1506.369995  0.220846  0.469932  0.583917  0.697903  0.878690
  1509.910034  0.220698  0.470972  0.585255  0.699538  0.886212
  1513.459961  0.222068  0.471877  0.586500  0.701123  0.888032
  1517.010010  0.222416  0.472594  0.587601  0.702609  0.892351
  1520.560059  0.219701  0.473369  0.588664  0.703959  0.888515
  1524.109985  0.223315  0.474060  0.589598  0.705136  0.896423
  1527.660034  0.219745  0.474695  0.590425  0.706155  0.895089
  1531.209961  0.220778  0.474690  0.590659  0.706628  0.900947
  1534.760010  0.221048  0.475062  0.591061  0.707061  0.895281
  1538.319946  0.223633  0.474879  0.591015  0.707150  0.899289
  1541.869995  0.217361  0.474805  0.590973  0.707141  0.897236
  1545.420044  0.223329  0.474188  0.590400  0.706612  0.899436
  1548.979980  0.216875  0.473514  0.589667  0.705820  0.897023
  1552.530029  0.220405  0.472797  0.588907  0.705017  0.894997
  1556.089966  0.219416  0.471983  0.588012  0.704040  0.896261
  1559.640015  0.218742  0.470846  0.586874  0.702902  0.893361
  1563.199951  0.215668  0.469979  0.585945  0.701910  0.894394
  1566.750000  0.213865  0.469171  0.585072  0.700973  0.890960
  1570.310059  0.214901  0.468324  0.584148  0.699972  0.889267
  1573.869995  0.215782  0.467547  0.583275  0.699002  0.887723
  1577.430054  0.214489  0.467174  0.582846  0.698519  0.886407
  1580.989990  0.212088  0.466499  0.582211  0.697924  0.887624
  1584.550049  0.213623  0.466075  0.581827  0.697578  0.890557
  1588.109985  0.213243  0.465472  0.581329  0.697186  0.886028
  1591.670044  0.211006  0.465620  0.581448  0.697276  0.881003
  1595.229980  0.210139  0.465048  0.580999  0.696950  0.877323
  1598.790039  0.210639  0.464993  0.580945  0.696896  0.879955
  1602.349976  0.207437  0.464749  0.580712  0.696676  0.874595
  1605.920044  0.207794  0.464332  0.580387  0.696442  0.874768
  1609.479980  0.206013  0.464048  0.580055  0.696062  0.870214
  1613.040039  0.206438  0.463137  0.579166  0.695194  0.867308
  1616.609985  0.203526  0.462104  0.577979  0.693855  0.861405
  1620.170044  0.203169  0.460881  0.576621  0.692361  0.855598
  1623.739990  0.197532  0.458968  0.574573  0.690178  0.847358
  1627.310059  0.197038  0.457167  0.572646  0.688124  0.839620
  1630.869995  0.190573  0.455145  0.570566  0.685987  0.833377
  1634.439941  0.190670  0.453650  0.569122  0.684595  0.832278
  1638.010010  0.191053  0.452431  0.568008  0.683585  0.827385
  1641.579956  0.191673  0.451995  0.567680  0.683365  0.832418
  1645.150024  0.188951  0.451813  0.567566  0.683320  0.830604
  1648.709961  0.190230  0.451686  0.567489  0.683291  0.833505
  1652.290039  0.189068  0.451396  0.567067  0.682737  0.831574
  1655.859985  0.186456  0.449456  0.565038  0.680621  0.831166
  1659.430054  0.182333  0.445315  0.561064  0.676813  0.829533
  1663.000000  0.178968  0.438842  0.555625  0.672408  0.827399
  1666.569946  0.173540  0.430890  0.549473  0.668057  0.818642
  1670.140015  0.169617  0.421703  0.542970  0.664238  0.811861
  1673.719971  0.165097  0.413366  0.537055  0.660743  0.805128
  1677.290039  0.164241  0.407240  0.532356  0.657473  0.802053
  1680.869995  0.162644  0.403581  0.528714  0.653846  0.795319
  1684.439941  0.159573  0.401434  0.525376  0.649318  0.792525
  1688.020020  0.164343  0.400024  0.521634  0.643243  0.785495
  1691.589966  0.164605  0.397954  0.516900  0.635845  0.780154
  1695.170044  0.164858  0.396719  0.512542  0.628365  0.769091
  1698.750000  0.167541  0.395984  0.507859  0.619735  0.762150
  1702.329956  0.172834  0.396411  0.504334  0.612257  0.755856
  1705.910034  0.168004  0.395883  0.500285  0.604688  0.746739
  1709.489990  0.180077  0.394740  0.495672  0.596603  0.730004
  1713.069946  0.170706  0.391541  0.489446  0.587351  0.716373
  1716.650024  0.180274  0.388145  0.482839  0.577532  0.707449
  1720.229980  0.169583  0.382995  0.474391  0.565788  0.685826
