ENVI ASCII Plot File [Sun Apr 06 17:06:51 2025]
Column 1: Wavelength
Column 2: Min: ROI #71~~2##255,0,0
Column 3: Mean-StdDev: ROI #71~~21##0,200,0
Column 4: Mean: ROI #71~~0##0,0,0
Column 5: Mean+StdDev: ROI #71~~21##0,200,0
Column 6: Max: ROI #71~~2##255,0,0
   935.609985  0.263632  0.443991  0.521816  0.599640  0.726242
   939.059998  0.271164  0.446295  0.524309  0.602323  0.726718
   942.520020  0.238533  0.460655  0.549727  0.638800  0.842415
   945.979980  0.225361  0.470932  0.570422  0.669911  0.874013
   949.429993  0.228598  0.478646  0.584524  0.690401  0.916800
   952.890015  0.224982  0.485063  0.594602  0.704141  0.926356
   956.349976  0.222686  0.490339  0.601839  0.713339  0.946035
   959.809998  0.226594  0.494243  0.606909  0.719575  0.951845
   963.270020  0.226748  0.497804  0.611327  0.724850  0.959354
   966.729980  0.228895  0.500996  0.615392  0.729788  0.962577
   970.190002  0.228077  0.504264  0.619348  0.734432  0.972293
   973.650024  0.230502  0.507035  0.622825  0.738616  0.973819
   977.109985  0.230008  0.509917  0.626312  0.742707  0.981402
   980.580017  0.235811  0.512895  0.629922  0.746950  0.986948
   984.039978  0.234548  0.515834  0.633433  0.751031  0.993909
   987.510010  0.237023  0.518458  0.636627  0.754796  0.996133
   990.969971  0.237423  0.521377  0.640113  0.758849  1.001027
   994.429993  0.240840  0.524257  0.643623  0.762989  1.006137
   997.900024  0.237584  0.527375  0.647282  0.767190  1.014349
  1001.369995  0.240523  0.530033  0.650555  0.771076  1.017716
  1004.830017  0.243756  0.532943  0.653988  0.775032  1.020515
  1008.299988  0.245066  0.535824  0.657445  0.779066  1.027182
  1011.770020  0.247325  0.538917  0.661074  0.783231  1.032826
  1015.239990  0.249538  0.541700  0.664451  0.787201  1.036741
  1018.710022  0.249653  0.544402  0.667722  0.791042  1.042427
  1022.179993  0.251827  0.547279  0.671186  0.795094  1.048893
  1025.650024  0.251583  0.550226  0.674695  0.799164  1.054213
  1029.119995  0.252546  0.552986  0.678034  0.803083  1.058644
  1032.589966  0.254873  0.555815  0.681428  0.807042  1.064242
  1036.060059  0.256117  0.558499  0.684620  0.810742  1.068175
  1039.530029  0.258182  0.561160  0.687849  0.814538  1.072404
  1043.000000  0.259818  0.563916  0.691133  0.818351  1.076679
  1046.479980  0.261598  0.566769  0.694512  0.822255  1.082404
  1049.949951  0.261807  0.569399  0.697665  0.825932  1.087109
  1053.430054  0.264008  0.571956  0.700762  0.829567  1.091563
  1056.900024  0.265844  0.574594  0.703912  0.833231  1.096554
  1060.380005  0.267267  0.577129  0.706959  0.836788  1.101314
  1063.849976  0.268470  0.579646  0.710020  0.840394  1.107079
  1067.329956  0.270163  0.582097  0.713000  0.843904  1.110142
  1070.810059  0.272287  0.584551  0.715924  0.847298  1.115045
  1074.290039  0.273398  0.587076  0.718971  0.850866  1.120803
  1077.760010  0.273367  0.589413  0.721854  0.854295  1.124734
  1081.239990  0.274841  0.591724  0.724640  0.857556  1.129871
  1084.719971  0.276964  0.594039  0.727410  0.860780  1.134460
  1088.199951  0.276432  0.596155  0.729975  0.863794  1.138953
  1091.680054  0.276938  0.598188  0.732472  0.866757  1.141771
  1095.170044  0.278457  0.600242  0.734976  0.869711  1.145396
  1098.650024  0.281878  0.602205  0.737354  0.872502  1.148865
  1102.130005  0.282282  0.603905  0.739466  0.875027  1.151190
  1105.609985  0.282721  0.605435  0.741377  0.877318  1.154191
  1109.099976  0.282440  0.606882  0.743173  0.879463  1.156258
  1112.579956  0.284076  0.608379  0.745017  0.881655  1.157527
  1116.069946  0.283885  0.609737  0.746727  0.883718  1.159001
  1119.550049  0.285334  0.611015  0.748347  0.885679  1.158117
  1123.040039  0.285136  0.612018  0.749674  0.887329  1.155364
  1126.520020  0.285713  0.612736  0.750602  0.888468  1.148702
  1130.010010  0.284957  0.612859  0.750902  0.888945  1.136065
  1133.500000  0.284749  0.612505  0.750653  0.888800  1.120264
  1136.989990  0.283740  0.611491  0.749826  0.888162  1.121690
  1140.469971  0.283968  0.610751  0.749251  0.887752  1.123004
  1143.959961  0.283104  0.610605  0.749310  0.888015  1.124662
  1147.449951  0.284108  0.611210  0.750062  0.888913  1.124793
  1150.939941  0.285118  0.612409  0.751298  0.890188  1.124187
  1154.430054  0.284522  0.613741  0.752549  0.891357  1.125126
  1157.930054  0.286522  0.614413  0.753208  0.892003  1.132112
  1161.420044  0.285979  0.614540  0.753205  0.891871  1.146776
  1164.910034  0.286212  0.613979  0.752572  0.891165  1.153228
  1168.400024  0.285250  0.613451  0.751887  0.890323  1.157564
  1171.900024  0.287631  0.612821  0.751147  0.889473  1.157181
  1175.390015  0.285912  0.612202  0.750393  0.888584  1.159579
  1178.890015  0.288316  0.611522  0.749646  0.887769  1.158939
  1182.380005  0.287104  0.611108  0.749150  0.887192  1.155164
  1185.880005  0.286159  0.610925  0.749003  0.887080  1.152679
  1189.369995  0.285123  0.611207  0.749427  0.887647  1.152654
  1192.869995  0.286086  0.611876  0.750346  0.888815  1.151779
  1196.369995  0.286148  0.613016  0.751769  0.890522  1.150575
  1199.869995  0.286058  0.614132  0.753217  0.892301  1.150023
  1203.369995  0.286742  0.615465  0.754935  0.894405  1.147178
  1206.869995  0.289503  0.616899  0.756730  0.896562  1.150250
  1210.369995  0.288270  0.618568  0.758774  0.898979  1.153411
  1213.869995  0.291851  0.620677  0.761296  0.901916  1.160925
  1217.369995  0.293626  0.622997  0.764115  0.905233  1.167760
  1220.869995  0.293466  0.625314  0.767004  0.908695  1.179209
  1224.369995  0.294662  0.627781  0.770060  0.912339  1.188970
  1227.869995  0.294882  0.630261  0.773047  0.915834  1.195182
  1231.380005  0.299036  0.632704  0.776014  0.919324  1.204475
  1234.880005  0.298956  0.634995  0.778767  0.922539  1.211093
  1238.390015  0.301030  0.637112  0.781366  0.925620  1.219603
  1241.890015  0.301446  0.638971  0.783657  0.928344  1.224111
  1245.400024  0.305442  0.640730  0.785830  0.930930  1.231454
  1248.900024  0.304251  0.642391  0.787929  0.933467  1.237624
  1252.410034  0.306278  0.644063  0.789943  0.935824  1.236855
  1255.920044  0.305787  0.645465  0.791727  0.937990  1.241101
  1259.420044  0.308159  0.646814  0.793365  0.939916  1.241446
  1262.930054  0.308116  0.647998  0.794875  0.941751  1.248823
  1266.439941  0.308946  0.649300  0.796488  0.943675  1.250758
  1269.949951  0.308037  0.650396  0.797888  0.945381  1.249028
  1273.459961  0.312378  0.651666  0.799418  0.947170  1.256586
  1276.969971  0.310906  0.652776  0.800912  0.949048  1.261822
  1280.479980  0.313633  0.654118  0.802565  0.951013  1.259712
  1283.989990  0.313363  0.655197  0.804022  0.952847  1.267791
  1287.510010  0.313906  0.656576  0.805689  0.954802  1.267758
  1291.020020  0.313179  0.657496  0.806972  0.956449  1.270510
  1294.530029  0.312905  0.658606  0.808297  0.957988  1.273728
  1298.050049  0.313967  0.659298  0.809381  0.959463  1.275693
  1301.560059  0.316706  0.660276  0.810522  0.960767  1.277611
  1305.079956  0.316431  0.660914  0.811447  0.961980  1.278850
  1308.589966  0.313997  0.661588  0.812232  0.962877  1.278465
  1312.109985  0.316724  0.661709  0.812589  0.963468  1.281667
  1315.619995  0.316315  0.661830  0.812811  0.963793  1.282644
  1319.140015  0.315828  0.661345  0.812446  0.963546  1.281994
  1322.660034  0.316768  0.661110  0.812078  0.963045  1.277295
  1326.180054  0.315505  0.660036  0.811034  0.962033  1.278593
  1329.699951  0.315893  0.658726  0.809492  0.960258  1.277820
  1333.219971  0.314440  0.656517  0.807073  0.957629  1.272424
  1336.739990  0.312625  0.654135  0.804241  0.954347  1.270316
  1340.260010  0.312432  0.651108  0.800786  0.950463  1.262426
  1343.780029  0.309060  0.647982  0.797075  0.946167  1.253755
  1347.300049  0.309562  0.644219  0.792696  0.941174  1.247492
  1350.819946  0.304909  0.640354  0.788085  0.935817  1.242762
  1354.349976  0.303792  0.636592  0.783620  0.930648  1.235805
  1357.869995  0.302883  0.633213  0.779544  0.925874  1.230203
  1361.390015  0.302003  0.629921  0.775665  0.921409  1.223059
  1364.920044  0.296782  0.626733  0.771993  0.917253  1.216443
  1368.439941  0.293897  0.623454  0.768334  0.913214  1.208817
  1371.969971  0.295006  0.620797  0.765249  0.909700  1.203874
  1375.500000  0.293847  0.618565  0.762766  0.906967  1.197004
  1379.020020  0.291950  0.616670  0.760368  0.904067  1.193232
  1382.550049  0.292550  0.614296  0.757566  0.900836  1.182054
  1386.079956  0.287912  0.611295  0.754255  0.897215  1.178390
  1389.609985  0.286663  0.607655  0.750041  0.892427  1.171505
  1393.140015  0.285109  0.603597  0.745044  0.886490  1.158172
  1396.670044  0.284330  0.598344  0.738867  0.879390  1.148819
  1400.199951  0.279125  0.592543  0.731889  0.871235  1.135646
  1403.729980  0.275889  0.585402  0.723389  0.861376  1.120102
  1407.260010  0.270632  0.577140  0.713603  0.850065  1.106014
  1410.790039  0.262893  0.567941  0.702567  0.837194  1.091353
  1414.319946  0.262618  0.557761  0.690571  0.823382  1.074480
  1417.859985  0.253897  0.547299  0.677985  0.808670  1.059584
  1421.390015  0.249345  0.536910  0.665367  0.793825  1.040526
  1424.920044  0.242779  0.526392  0.652781  0.779169  1.024810
  1428.459961  0.239013  0.516889  0.641326  0.765763  1.001571
  1431.989990  0.232906  0.508154  0.630724  0.753294  0.990515
  1435.530029  0.229390  0.500757  0.621822  0.742887  0.974660
  1439.069946  0.225717  0.494585  0.614418  0.734250  0.968480
  1442.599976  0.225579  0.489595  0.608482  0.727369  0.960248
  1446.140015  0.218233  0.485683  0.603778  0.721873  0.955527
  1449.680054  0.222320  0.482563  0.600090  0.717618  0.949451
  1453.219971  0.217096  0.480189  0.597254  0.714318  0.949523
  1456.760010  0.219033  0.478619  0.595358  0.712098  0.946272
  1460.300049  0.217407  0.477000  0.593615  0.710229  0.946378
  1463.839966  0.218919  0.476304  0.592796  0.709288  0.945577
  1467.380005  0.217112  0.475685  0.592158  0.708632  0.943690
  1470.920044  0.217948  0.475561  0.592083  0.708606  0.943425
  1474.459961  0.218141  0.475393  0.592111  0.708830  0.947634
  1478.010010  0.218559  0.475857  0.592749  0.709642  0.951060
  1481.550049  0.218323  0.476243  0.593351  0.710458  0.951739
  1485.089966  0.219407  0.476781  0.594102  0.711423  0.951155
  1488.640015  0.218106  0.477062  0.594630  0.712197  0.953166
  1492.180054  0.219305  0.477733  0.595510  0.713287  0.954199
  1495.729980  0.216644  0.478298  0.596429  0.714559  0.958545
  1499.270020  0.219809  0.479466  0.597791  0.716117  0.962240
  1502.819946  0.219739  0.480298  0.599003  0.717707  0.964930
  1506.369995  0.221175  0.481254  0.600254  0.719255  0.969467
  1509.910034  0.222968  0.482166  0.601564  0.720961  0.972690
  1513.459961  0.221897  0.483200  0.602894  0.722587  0.976735
  1517.010010  0.224766  0.483914  0.604019  0.724125  0.978086
  1520.560059  0.221917  0.484793  0.605150  0.725507  0.982717
  1524.109985  0.224786  0.485206  0.605927  0.726648  0.977522
  1527.660034  0.221199  0.485721  0.606592  0.727463  0.986359
  1531.209961  0.222783  0.485681  0.606774  0.727867  0.985426
  1534.760010  0.223294  0.485992  0.607150  0.728308  0.984456
  1538.319946  0.224143  0.485758  0.607074  0.728391  0.987635
  1541.869995  0.224150  0.485607  0.606942  0.728277  0.991644
  1545.420044  0.224142  0.485014  0.606370  0.727725  0.992639
  1548.979980  0.222606  0.484362  0.605674  0.726987  0.991975
  1552.530029  0.223403  0.483427  0.604742  0.726056  0.985862
  1556.089966  0.222440  0.482645  0.603888  0.725131  0.987876
  1559.640015  0.222219  0.481531  0.602766  0.724002  0.984558
  1563.199951  0.221722  0.480749  0.601924  0.723099  0.984355
  1566.750000  0.221818  0.479759  0.600979  0.722199  0.987023
  1570.310059  0.220052  0.478980  0.600084  0.721188  0.984632
  1573.869995  0.220794  0.478173  0.599262  0.720351  0.981332
  1577.430054  0.219944  0.477704  0.598790  0.719876  0.979512
  1580.989990  0.222413  0.476945  0.598055  0.719166  0.977633
  1584.550049  0.220346  0.476503  0.597670  0.718836  0.979109
  1588.109985  0.218741  0.475945  0.597170  0.718394  0.979412
  1591.670044  0.220576  0.476013  0.597291  0.718569  0.976577
  1595.229980  0.221010  0.475468  0.596760  0.718053  0.977526
  1598.790039  0.220288  0.475183  0.596547  0.717912  0.970634
  1602.349976  0.220314  0.474946  0.596282  0.717619  0.971470
  1605.920044  0.219389  0.474441  0.595905  0.717368  0.966832
  1609.479980  0.218722  0.473868  0.595323  0.716778  0.961843
  1613.040039  0.219753  0.472853  0.594295  0.715737  0.956383
  1616.609985  0.216988  0.471731  0.593048  0.714364  0.949996
  1620.170044  0.216330  0.470363  0.591569  0.712774  0.931854
  1623.739990  0.214884  0.468077  0.589149  0.710220  0.912775
  1627.310059  0.216582  0.466124  0.587045  0.707965  0.901431
  1630.869995  0.211545  0.463944  0.584819  0.705695  0.903174
  1634.439941  0.214609  0.462395  0.583237  0.704079  0.898704
  1638.010010  0.211325  0.460931  0.581968  0.703005  0.903939
  1641.579956  0.213758  0.460329  0.581443  0.702557  0.895088
  1645.150024  0.211658  0.459903  0.581045  0.702188  0.896152
  1648.709961  0.212361  0.459613  0.580821  0.702029  0.897045
  1652.290039  0.212046  0.459377  0.580448  0.701520  0.903313
  1655.859985  0.209993  0.457157  0.578149  0.699141  0.892443
  1659.430054  0.208375  0.452815  0.573953  0.695091  0.891313
  1663.000000  0.207398  0.446133  0.568146  0.690160  0.887549
  1666.569946  0.190292  0.437803  0.561583  0.685363  0.887110
  1670.140015  0.174366  0.428523  0.554848  0.681173  0.880378
  1673.719971  0.157512  0.420329  0.548894  0.677460  0.875233
  1677.290039  0.153084  0.414238  0.544132  0.674026  0.868007
  1680.869995  0.149206  0.410658  0.540627  0.670596  0.861147
  1684.439941  0.152538  0.408851  0.537621  0.666390  0.859707
  1688.020020  0.154489  0.407757  0.534385  0.661013  0.850385
  1691.589966  0.158891  0.406301  0.530247  0.654193  0.838271
  1695.170044  0.156761  0.405269  0.526289  0.647309  0.829552
  1698.750000  0.170345  0.405233  0.522253  0.639273  0.817577
  1702.329956  0.179755  0.405916  0.519279  0.632642  0.809930
  1705.910034  0.176531  0.405658  0.515417  0.625176  0.805013
  1709.489990  0.190145  0.404024  0.510883  0.617743  0.782391
  1713.069946  0.187006  0.401013  0.504776  0.608540  0.782988
  1716.650024  0.186449  0.397627  0.498495  0.599363  0.762930
  1720.229980  0.162954  0.393124  0.490699  0.588274  0.747281
