ENVI ASCII Plot File [Sun Apr 06 16:52:54 2025]
Column 1: Wavelength
Column 2: Min: ROI #56~~2##255,0,0
Column 3: Mean-StdDev: ROI #56~~21##0,200,0
Column 4: Mean: ROI #56~~0##0,0,0
Column 5: Mean+StdDev: ROI #56~~21##0,200,0
Column 6: Max: ROI #56~~2##255,0,0
   935.609985  0.228267  0.394267  0.454414  0.514560  0.641140
   939.059998  0.233263  0.396419  0.456661  0.516904  0.625146
   942.520020  0.243421  0.407024  0.479678  0.552332  0.652926
   945.979980  0.222783  0.413499  0.497436  0.581373  0.689195
   949.429993  0.214557  0.418441  0.509939  0.601436  0.713761
   952.890015  0.210566  0.424477  0.519722  0.614967  0.728103
   956.349976  0.212175  0.429199  0.526694  0.624189  0.740838
   959.809998  0.207485  0.433084  0.531887  0.630689  0.753226
   963.270020  0.211581  0.436688  0.536446  0.636204  0.759655
   966.729980  0.211948  0.440035  0.540531  0.641027  0.764222
   970.190002  0.214373  0.443659  0.544848  0.646037  0.771249
   973.650024  0.215201  0.446504  0.548354  0.650204  0.772788
   977.109985  0.218767  0.449488  0.551968  0.654449  0.777095
   980.580017  0.221763  0.452769  0.555819  0.658868  0.781923
   984.039978  0.224601  0.455914  0.559520  0.663127  0.789868
   987.510010  0.223537  0.458833  0.563032  0.667231  0.791589
   990.969971  0.227434  0.461983  0.566805  0.671626  0.797337
   994.429993  0.225449  0.465111  0.570501  0.675892  0.804369
   997.900024  0.232709  0.468525  0.574455  0.680386  0.809390
  1001.369995  0.231927  0.471354  0.577927  0.684499  0.811583
  1004.830017  0.233725  0.474539  0.581625  0.688711  0.817247
  1008.299988  0.234750  0.477685  0.585305  0.692925  0.824493
  1011.770020  0.238255  0.481127  0.589267  0.697406  0.829245
  1015.239990  0.238119  0.484168  0.592870  0.701572  0.834249
  1018.710022  0.242599  0.487158  0.596407  0.705656  0.838242
  1022.179993  0.242978  0.490262  0.600085  0.709908  0.844911
  1025.650024  0.246461  0.493407  0.603796  0.714185  0.848319
  1029.119995  0.248678  0.496423  0.607345  0.718268  0.855220
  1032.589966  0.250259  0.499598  0.611017  0.722437  0.858532
  1036.060059  0.251712  0.502475  0.614429  0.726383  0.863959
  1039.530029  0.254774  0.505432  0.617911  0.730391  0.868671
  1043.000000  0.257160  0.508501  0.621481  0.734461  0.874780
  1046.479980  0.260315  0.511608  0.625092  0.738577  0.879944
  1049.949951  0.260116  0.514411  0.628442  0.742472  0.883676
  1053.430054  0.261616  0.517235  0.631751  0.746267  0.888606
  1056.900024  0.264121  0.520177  0.635185  0.750192  0.893503
  1060.380005  0.265508  0.523017  0.638497  0.753976  0.898382
  1063.849976  0.268212  0.525800  0.641800  0.757799  0.902004
  1067.329956  0.269198  0.528559  0.645096  0.761634  0.905339
  1070.810059  0.271112  0.531313  0.648307  0.765301  0.909618
  1074.290039  0.274217  0.534099  0.651551  0.769003  0.914821
  1077.760010  0.276010  0.536750  0.654663  0.772577  0.920805
  1081.239990  0.277539  0.539438  0.657843  0.776247  0.924660
  1084.719971  0.279144  0.542109  0.661002  0.779896  0.927999
  1088.199951  0.280515  0.544510  0.663864  0.783219  0.933004
  1091.680054  0.281369  0.546848  0.666630  0.786412  0.936898
  1095.170044  0.284438  0.549228  0.669469  0.789709  0.941355
  1098.650024  0.285202  0.551568  0.672219  0.792870  0.945592
  1102.130005  0.287056  0.553648  0.674721  0.795794  0.949705
  1105.609985  0.289230  0.555626  0.677115  0.798604  0.952446
  1109.099976  0.290481  0.557610  0.679456  0.801301  0.955073
  1112.579956  0.291050  0.559534  0.681782  0.804030  0.959235
  1116.069946  0.291396  0.561348  0.684009  0.806670  0.961230
  1119.550049  0.292620  0.563083  0.686121  0.809159  0.964885
  1123.040039  0.294363  0.564591  0.688055  0.811519  0.968699
  1126.520020  0.294012  0.565906  0.689762  0.813618  0.972125
  1130.010010  0.295884  0.566794  0.691020  0.815246  0.972979
  1133.500000  0.295111  0.567245  0.691860  0.816474  0.977206
  1136.989990  0.293783  0.567336  0.692415  0.817494  0.978154
  1140.469971  0.292297  0.567548  0.693049  0.818551  0.978078
  1143.959961  0.294073  0.568044  0.693846  0.819648  0.980850
  1147.449951  0.295377  0.568836  0.694807  0.820779  0.982310
  1150.939941  0.294227  0.569952  0.695936  0.821919  0.982828
  1154.430054  0.295024  0.571121  0.696938  0.822756  0.983242
  1157.930054  0.298119  0.571679  0.697358  0.823037  0.984135
  1161.420044  0.298962  0.571949  0.697455  0.822961  0.983944
  1164.910034  0.296414  0.571778  0.697215  0.822652  0.983314
  1168.400024  0.297353  0.571678  0.697072  0.822466  0.983136
  1171.900024  0.296642  0.571586  0.696959  0.822331  0.982430
  1175.390015  0.296945  0.571536  0.696868  0.822201  0.981222
  1178.890015  0.297430  0.571254  0.696579  0.821903  0.983869
  1182.380005  0.296448  0.571102  0.696469  0.821835  0.985175
  1185.880005  0.296107  0.571196  0.696679  0.822162  0.983663
  1189.369995  0.295486  0.571809  0.697496  0.823183  0.987092
  1192.869995  0.296068  0.572744  0.698748  0.824752  0.988897
  1196.369995  0.296104  0.574078  0.700373  0.826669  0.986209
  1199.869995  0.296861  0.575309  0.701990  0.828672  0.992284
  1203.369995  0.300661  0.576846  0.703887  0.830927  0.995213
  1206.869995  0.299160  0.578241  0.705679  0.833117  1.001800
  1210.369995  0.302331  0.580033  0.707846  0.835659  1.003268
  1213.869995  0.303176  0.582281  0.710451  0.838620  1.004779
  1217.369995  0.305468  0.585002  0.713633  0.842265  1.010061
  1220.869995  0.306104  0.587695  0.716812  0.845929  1.016210
  1224.369995  0.309305  0.590704  0.720276  0.849848  1.021417
  1227.869995  0.309764  0.593542  0.723632  0.853721  1.024008
  1231.380005  0.310822  0.596447  0.726983  0.857519  1.027228
  1234.880005  0.312418  0.598973  0.729957  0.860942  1.032726
  1238.390015  0.314913  0.601468  0.732850  0.864231  1.036904
  1241.890015  0.313349  0.603595  0.735434  0.867273  1.041041
  1245.400024  0.316715  0.605627  0.737900  0.870173  1.045930
  1248.900024  0.318872  0.607533  0.740200  0.872866  1.048187
  1252.410034  0.320431  0.609477  0.742506  0.875535  1.050051
  1255.920044  0.320146  0.611191  0.744564  0.877936  1.054623
  1259.420044  0.323354  0.612806  0.746480  0.880155  1.057742
  1262.930054  0.322074  0.614320  0.748354  0.882389  1.060736
  1266.439941  0.325161  0.615905  0.750206  0.884508  1.061274
  1269.949951  0.323187  0.617228  0.751900  0.886571  1.064431
  1273.459961  0.328487  0.618761  0.753690  0.888619  1.068346
  1276.969971  0.327951  0.620180  0.755445  0.890711  1.074000
  1280.479980  0.325528  0.621664  0.757272  0.892881  1.076494
  1283.989990  0.326145  0.622919  0.758936  0.894952  1.075979
  1287.510010  0.331189  0.624451  0.760738  0.897024  1.078752
  1291.020020  0.331774  0.625658  0.762327  0.898996  1.081225
  1294.530029  0.330733  0.627106  0.764011  0.900916  1.085820
  1298.050049  0.330101  0.628030  0.765300  0.902570  1.088834
  1301.560059  0.332895  0.629255  0.766719  0.904182  1.090192
  1305.079956  0.330572  0.630187  0.767947  0.905706  1.090838
  1308.589966  0.333893  0.630960  0.768933  0.906905  1.094463
  1312.109985  0.333606  0.631505  0.769729  0.907953  1.094454
  1315.619995  0.333587  0.631947  0.770290  0.908632  1.097176
  1319.140015  0.331586  0.631905  0.770425  0.908944  1.098029
  1322.660034  0.334929  0.631890  0.770395  0.908901  1.097368
  1326.180054  0.332157  0.631084  0.769652  0.908220  1.095379
  1329.699951  0.332957  0.630063  0.768510  0.906957  1.092767
  1333.219971  0.331255  0.628158  0.766546  0.904935  1.093429
  1336.739990  0.328682  0.626189  0.764368  0.902547  1.087537
  1340.260010  0.325390  0.623644  0.761571  0.899499  1.087538
  1343.780029  0.325415  0.620743  0.758346  0.895950  1.083588
  1347.300049  0.321616  0.617182  0.754312  0.891441  1.078529
  1350.819946  0.320709  0.613632  0.750275  0.886918  1.073409
  1354.349976  0.315872  0.610049  0.746161  0.882273  1.067366
  1357.869995  0.313151  0.606693  0.742390  0.878087  1.060001
  1361.390015  0.310193  0.603526  0.738746  0.873966  1.057876
  1364.920044  0.309386  0.600582  0.735519  0.870456  1.055748
  1368.439941  0.304898  0.597578  0.732264  0.866950  1.051821
  1371.969971  0.305332  0.595057  0.729566  0.864074  1.045883
  1375.500000  0.296475  0.592655  0.727006  0.861356  1.042523
  1379.020020  0.298147  0.590694  0.724654  0.858615  1.038056
  1382.550049  0.296598  0.588244  0.721915  0.855586  1.033754
  1386.079956  0.292900  0.585154  0.718619  0.852083  1.030212
  1389.609985  0.288650  0.581444  0.714522  0.847599  1.025031
  1393.140015  0.290249  0.577363  0.709668  0.841974  1.018252
  1396.670044  0.283503  0.572101  0.703701  0.835301  1.011656
  1400.199951  0.282968  0.566261  0.696927  0.827593  1.001936
  1403.729980  0.273268  0.558945  0.688508  0.818072  0.990510
  1407.260010  0.269887  0.550419  0.678672  0.806924  0.975882
  1410.790039  0.262092  0.540780  0.667643  0.794506  0.960000
  1414.319946  0.251420  0.530353  0.655638  0.780922  0.944528
  1417.859985  0.247033  0.519612  0.643091  0.766570  0.928265
  1421.390015  0.238972  0.508921  0.630460  0.751999  0.909643
  1424.920044  0.235125  0.498307  0.618090  0.737873  0.894054
  1428.459961  0.220530  0.488925  0.606974  0.725024  0.876786
  1431.989990  0.222440  0.480183  0.596775  0.713366  0.862444
  1435.530029  0.216914  0.472937  0.588181  0.703424  0.850546
  1439.069946  0.213130  0.466918  0.581093  0.695268  0.842067
  1442.599976  0.205030  0.461956  0.575350  0.688743  0.831398
  1446.140015  0.210242  0.458326  0.571091  0.683855  0.824239
  1449.680054  0.203504  0.455383  0.567673  0.679963  0.820555
  1453.219971  0.206084  0.453246  0.565226  0.677206  0.819656
  1456.760010  0.203803  0.451695  0.563449  0.675204  0.818495
  1460.300049  0.204444  0.450377  0.562008  0.673638  0.814981
  1463.839966  0.202464  0.449675  0.561290  0.672905  0.813300
  1467.380005  0.202504  0.449290  0.560945  0.672601  0.813584
  1470.920044  0.202426  0.449466  0.561274  0.673083  0.817141
  1474.459961  0.203292  0.449445  0.561423  0.673400  0.815412
  1478.010010  0.202609  0.450081  0.562228  0.674375  0.815855
  1481.550049  0.203115  0.450546  0.562927  0.675307  0.817065
  1485.089966  0.201174  0.451253  0.563854  0.676455  0.821258
  1488.640015  0.200000  0.451706  0.564623  0.677539  0.821074
  1492.180054  0.201175  0.452684  0.565907  0.679130  0.824255
  1495.729980  0.202917  0.453433  0.566931  0.680430  0.828755
  1499.270020  0.203058  0.454706  0.568559  0.682411  0.830706
  1502.819946  0.202822  0.455752  0.569909  0.684067  0.829956
  1506.369995  0.205176  0.456870  0.571392  0.685914  0.837718
  1509.910034  0.206171  0.457971  0.572869  0.687766  0.834446
  1513.459961  0.204961  0.459163  0.574427  0.689691  0.837635
  1517.010010  0.202828  0.459996  0.575588  0.691180  0.842333
  1520.560059  0.207752  0.460814  0.576711  0.692608  0.842746
  1524.109985  0.206596  0.461445  0.577589  0.693733  0.843793
  1527.660034  0.208590  0.461887  0.578278  0.694670  0.845001
  1531.209961  0.206328  0.461955  0.578615  0.695275  0.846826
  1534.760010  0.208850  0.462330  0.579106  0.695881  0.848602
  1538.319946  0.204010  0.461945  0.578862  0.695779  0.847584
  1541.869995  0.207827  0.461871  0.578829  0.695788  0.848724
  1545.420044  0.204273  0.461280  0.578281  0.695281  0.847878
  1548.979980  0.208045  0.460625  0.577592  0.694559  0.845110
  1552.530029  0.202393  0.459818  0.576784  0.693750  0.845308
  1556.089966  0.205178  0.459048  0.576009  0.692969  0.845861
  1559.640015  0.202092  0.457964  0.574959  0.691954  0.846387
  1563.199951  0.203293  0.457119  0.574136  0.691153  0.843166
  1566.750000  0.200706  0.456014  0.573018  0.690021  0.842223
  1570.310059  0.202649  0.455296  0.572268  0.689240  0.841390
  1573.869995  0.201430  0.454634  0.571612  0.688589  0.843668
  1577.430054  0.197419  0.454313  0.571358  0.688404  0.840568
  1580.989990  0.197567  0.453565  0.570656  0.687746  0.841627
  1584.550049  0.199820  0.453245  0.570375  0.687506  0.841117
  1588.109985  0.199369  0.452617  0.569869  0.687122  0.842428
  1591.670044  0.198754  0.452774  0.570058  0.687343  0.841101
  1595.229980  0.197742  0.452205  0.569586  0.686967  0.842654
  1598.790039  0.194622  0.452092  0.569584  0.687076  0.843438
  1602.349976  0.195409  0.451789  0.569415  0.687042  0.842924
  1605.920044  0.196694  0.451378  0.569111  0.686844  0.843474
  1609.479980  0.197101  0.450988  0.568768  0.686549  0.844171
  1613.040039  0.192856  0.450091  0.567939  0.685788  0.842389
  1616.609985  0.195525  0.448950  0.566774  0.684599  0.837741
  1620.170044  0.191592  0.447814  0.565596  0.683377  0.839976
  1623.739990  0.191690  0.446075  0.564003  0.681932  0.840504
  1627.310059  0.187997  0.444601  0.562553  0.680504  0.838333
  1630.869995  0.191093  0.442822  0.560894  0.678966  0.837692
  1634.439941  0.186294  0.441568  0.559800  0.678032  0.833544
  1638.010010  0.189602  0.440541  0.558902  0.677263  0.832161
  1641.579956  0.185820  0.440155  0.558642  0.677130  0.832721
  1645.150024  0.190001  0.439851  0.558402  0.676952  0.833596
  1648.709961  0.186934  0.439380  0.557933  0.676485  0.836044
  1652.290039  0.186315  0.438887  0.557332  0.675778  0.831984
  1655.859985  0.185201  0.437079  0.555482  0.673885  0.828453
  1659.430054  0.183030  0.434079  0.552601  0.671124  0.823852
  1663.000000  0.180605  0.429600  0.548529  0.667458  0.822958
  1666.569946  0.179573  0.424237  0.543768  0.663300  0.815966
  1670.140015  0.175355  0.418312  0.538544  0.658777  0.812596
  1673.719971  0.162301  0.412921  0.533673  0.654426  0.808105
  1677.290039  0.156726  0.408221  0.529270  0.650319  0.805459
  1680.869995  0.154171  0.404972  0.525597  0.646223  0.800903
  1684.439941  0.157070  0.402332  0.521913  0.641495  0.802240
  1688.020020  0.160457  0.399524  0.517453  0.635382  0.788186
  1691.589966  0.162459  0.396103  0.511969  0.627834  0.782178
  1695.170044  0.162432  0.393257  0.506666  0.620076  0.764780
  1698.750000  0.168185  0.390107  0.500841  0.611575  0.761431
  1702.329956  0.166764  0.387912  0.495504  0.603095  0.744015
  1705.910034  0.164414  0.385371  0.489944  0.594516  0.738246
  1709.489990  0.166244  0.382460  0.484033  0.585605  0.725068
  1713.069946  0.181114  0.378934  0.477556  0.576179  0.720652
  1716.650024  0.186130  0.374940  0.469915  0.564891  0.697317
  1720.229980  0.183431  0.370596  0.462147  0.553698  0.689374
