ENVI ASCII Plot File [Sun Apr 06 16:47:02 2025]
Column 1: Wavelength
Column 2: Min: ROI #50~~2##255,0,0
Column 3: Mean-StdDev: ROI #50~~21##0,200,0
Column 4: Mean: ROI #50~~0##0,0,0
Column 5: Mean+StdDev: ROI #50~~21##0,200,0
Column 6: Max: ROI #50~~2##255,0,0
   935.609985  0.209008  0.401621  0.470984  0.540348  0.678832
   939.059998  0.201650  0.403998  0.473400  0.542801  0.673693
   942.520020  0.197141  0.418944  0.496924  0.574905  0.723492
   945.979980  0.183190  0.428871  0.515251  0.601630  0.780053
   949.429993  0.181141  0.435766  0.527793  0.619820  0.817706
   952.890015  0.181470  0.442953  0.538073  0.633193  0.836631
   956.349976  0.181531  0.448463  0.545429  0.642396  0.840664
   959.809998  0.183243  0.453018  0.550959  0.648899  0.845116
   963.270020  0.181318  0.456852  0.555729  0.654606  0.843674
   966.729980  0.185404  0.460543  0.560169  0.659795  0.849556
   970.190002  0.185557  0.464336  0.564604  0.664872  0.854081
   973.650024  0.190212  0.467621  0.568518  0.669416  0.856264
   977.109985  0.188585  0.470956  0.572509  0.674062  0.862232
   980.580017  0.193257  0.474394  0.576553  0.678713  0.866935
   984.039978  0.192328  0.477819  0.580614  0.683409  0.870048
   987.510010  0.198294  0.481030  0.584396  0.687761  0.874314
   990.969971  0.196189  0.484368  0.588362  0.692356  0.876068
   994.429993  0.199443  0.487784  0.592364  0.696943  0.885902
   997.900024  0.199490  0.491280  0.596466  0.701652  0.891544
  1001.369995  0.204982  0.494486  0.600265  0.706045  0.897592
  1004.830017  0.204349  0.497869  0.604203  0.710536  0.899768
  1008.299988  0.205844  0.501291  0.608217  0.715144  0.908858
  1011.770020  0.209954  0.504829  0.612362  0.719894  0.912853
  1015.239990  0.210571  0.508154  0.616256  0.724358  0.917741
  1018.710022  0.212064  0.511435  0.620056  0.728677  0.922329
  1022.179993  0.215955  0.514744  0.623988  0.733233  0.928340
  1025.650024  0.217251  0.518162  0.627999  0.737837  0.932579
  1029.119995  0.220163  0.521387  0.631841  0.742295  0.939012
  1032.589966  0.221915  0.524788  0.635789  0.746789  0.942956
  1036.060059  0.222924  0.527982  0.639474  0.750965  0.946246
  1039.530029  0.225614  0.531115  0.643192  0.755270  0.950729
  1043.000000  0.226970  0.534364  0.647029  0.759695  0.957507
  1046.479980  0.229086  0.537698  0.650906  0.764114  0.962490
  1049.949951  0.229888  0.540799  0.654534  0.768268  0.967812
  1053.430054  0.232509  0.543775  0.658038  0.772301  0.971730
  1056.900024  0.234816  0.546858  0.661651  0.776444  0.974602
  1060.380005  0.236860  0.549970  0.665263  0.780556  0.981395
  1063.849976  0.239490  0.552991  0.668808  0.784625  0.986070
  1067.329956  0.242231  0.556018  0.672329  0.788640  0.987973
  1070.810059  0.244555  0.558935  0.675734  0.792533  0.991729
  1074.290039  0.247828  0.561888  0.679219  0.796550  1.000103
  1077.760010  0.248153  0.564798  0.682631  0.800464  1.005960
  1081.239990  0.249866  0.567703  0.686006  0.804309  1.007572
  1084.719971  0.252130  0.570530  0.689332  0.808134  1.012562
  1088.199951  0.254116  0.573162  0.692466  0.811770  1.019237
  1091.680054  0.256728  0.575698  0.695497  0.815297  1.023501
  1095.170044  0.257758  0.578272  0.698523  0.818775  1.025026
  1098.650024  0.258682  0.580814  0.701468  0.822121  1.027374
  1102.130005  0.259200  0.583100  0.704191  0.825281  1.031634
  1105.609985  0.261952  0.585358  0.706850  0.828342  1.034124
  1109.099976  0.263576  0.587490  0.709353  0.831217  1.037516
  1112.579956  0.264647  0.589475  0.711746  0.834018  1.044102
  1116.069946  0.265500  0.591416  0.714122  0.836827  1.043759
  1119.550049  0.267482  0.593346  0.716478  0.839609  1.041361
  1123.040039  0.267711  0.595004  0.718573  0.842142  1.039667
  1126.520020  0.269539  0.596452  0.720444  0.844435  1.035154
  1130.010010  0.268877  0.597297  0.721745  0.846192  1.024448
  1133.500000  0.270066  0.597583  0.722545  0.847507  1.011894
  1136.989990  0.270922  0.597359  0.722987  0.848616  1.010830
  1140.469971  0.268958  0.597374  0.723604  0.849834  1.011492
  1143.959961  0.267780  0.597804  0.724508  0.851213  1.011787
  1147.449951  0.269042  0.598922  0.725776  0.852630  1.016097
  1150.939941  0.271911  0.600550  0.727280  0.854011  1.018929
  1154.430054  0.273700  0.602270  0.728692  0.855114  1.020046
  1157.930054  0.276039  0.603381  0.729515  0.855649  1.031160
  1161.420044  0.273618  0.603993  0.729878  0.855763  1.042365
  1164.910034  0.275359  0.603971  0.729740  0.855509  1.053201
  1168.400024  0.274429  0.604075  0.729749  0.855424  1.055740
  1171.900024  0.274978  0.604134  0.729780  0.855426  1.055502
  1175.390015  0.274783  0.604016  0.729641  0.855266  1.054361
  1178.890015  0.275456  0.603876  0.729500  0.855123  1.064011
  1182.380005  0.274174  0.603758  0.729425  0.855093  1.061473
  1185.880005  0.275193  0.603874  0.729631  0.855388  1.059671
  1189.369995  0.272159  0.604479  0.730444  0.856409  1.057837
  1192.869995  0.275366  0.605496  0.731765  0.858034  1.057358
  1196.369995  0.275725  0.606981  0.733563  0.860145  1.058909
  1199.869995  0.279106  0.608355  0.735362  0.862368  1.058069
  1203.369995  0.278780  0.609841  0.737260  0.864679  1.057735
  1206.869995  0.280871  0.611527  0.739309  0.867092  1.060561
  1210.369995  0.281601  0.613464  0.741598  0.869732  1.064026
  1213.869995  0.281412  0.615785  0.744300  0.872815  1.068416
  1217.369995  0.282923  0.618667  0.747597  0.876527  1.079364
  1220.869995  0.285065  0.621681  0.751116  0.880552  1.094096
  1224.369995  0.289309  0.624934  0.754813  0.884693  1.100675
  1227.869995  0.291893  0.627987  0.758341  0.888696  1.103860
  1231.380005  0.294848  0.631072  0.761853  0.892633  1.114165
  1234.880005  0.297002  0.633779  0.765067  0.896355  1.123880
  1238.390015  0.300192  0.636559  0.768283  0.900008  1.128068
  1241.890015  0.301584  0.638975  0.771104  0.903233  1.129852
  1245.400024  0.304389  0.641209  0.773725  0.906242  1.133237
  1248.900024  0.306503  0.643345  0.776260  0.909176  1.141383
  1252.410034  0.309507  0.645438  0.778704  0.911970  1.148897
  1255.920044  0.309795  0.647288  0.780948  0.914607  1.149480
  1259.420044  0.312888  0.649035  0.782966  0.916897  1.148067
  1262.930054  0.312753  0.650663  0.784953  0.919243  1.147881
  1266.439941  0.313795  0.652464  0.787027  0.921589  1.157169
  1269.949951  0.313249  0.653989  0.788889  0.923788  1.158090
  1273.459961  0.314852  0.655539  0.790756  0.925972  1.162932
  1276.969971  0.315926  0.656988  0.792558  0.928128  1.163210
  1280.479980  0.317973  0.658698  0.794518  0.930337  1.166377
  1283.989990  0.319591  0.660211  0.796419  0.932627  1.169999
  1287.510010  0.321723  0.661866  0.798351  0.934837  1.178359
  1291.020020  0.321883  0.663199  0.800077  0.936955  1.176926
  1294.530029  0.325884  0.664853  0.801986  0.939120  1.177764
  1298.050049  0.323100  0.665999  0.803501  0.941004  1.181881
  1301.560059  0.326727  0.667303  0.805037  0.942772  1.185924
  1305.079956  0.327233  0.668369  0.806373  0.944377  1.192850
  1308.589966  0.328926  0.669455  0.807605  0.945756  1.191664
  1312.109985  0.330359  0.670175  0.808614  0.947054  1.194441
  1315.619995  0.331139  0.670821  0.809390  0.947958  1.193404
  1319.140015  0.331557  0.670871  0.809688  0.948504  1.195664
  1322.660034  0.332240  0.671173  0.809996  0.948819  1.195511
  1326.180054  0.330748  0.670661  0.809566  0.948471  1.192399
  1329.699951  0.329408  0.669916  0.808804  0.947691  1.193690
  1333.219971  0.329014  0.668394  0.807182  0.945969  1.187045
  1336.739990  0.325222  0.666331  0.804872  0.943412  1.189178
  1340.260010  0.322220  0.663908  0.802160  0.940412  1.184898
  1343.780029  0.318270  0.660908  0.798775  0.936642  1.178167
  1347.300049  0.318134  0.657321  0.794798  0.932275  1.172402
  1350.819946  0.312713  0.653407  0.790273  0.927138  1.163336
  1354.349976  0.310385  0.649606  0.785849  0.922093  1.159403
  1357.869995  0.307089  0.646265  0.781943  0.917622  1.153367
  1361.390015  0.304816  0.642979  0.778193  0.913407  1.154919
  1364.920044  0.301836  0.639885  0.774769  0.909652  1.146161
  1368.439941  0.299202  0.636806  0.771419  0.906032  1.137558
  1371.969971  0.295206  0.633951  0.768368  0.902785  1.124620
  1375.500000  0.291560  0.631629  0.765916  0.900203  1.120750
  1379.020020  0.291989  0.629737  0.763624  0.897510  1.116638
  1382.550049  0.289659  0.627391  0.760961  0.894531  1.114284
  1386.079956  0.286345  0.624526  0.757872  0.891218  1.105491
  1389.609985  0.282874  0.621082  0.754083  0.887084  1.097701
  1393.140015  0.278906  0.617354  0.749724  0.882094  1.082844
  1396.670044  0.274682  0.612671  0.744403  0.876135  1.080271
  1400.199951  0.267470  0.607137  0.737981  0.868826  1.075897
  1403.729980  0.268964  0.600165  0.729925  0.859686  1.065393
  1407.260010  0.259775  0.591761  0.720262  0.848763  1.046329
  1410.790039  0.252282  0.581852  0.708865  0.835877  1.029087
  1414.319946  0.243019  0.570726  0.696008  0.821289  1.015076
  1417.859985  0.233614  0.558769  0.682057  0.805345  1.001748
  1421.390015  0.227778  0.546981  0.668127  0.789273  0.987052
  1424.920044  0.218945  0.535204  0.654390  0.773575  0.969710
  1428.459961  0.214459  0.524647  0.641991  0.759335  0.949355
  1431.989990  0.203575  0.515199  0.630936  0.746672  0.932899
  1435.530029  0.202881  0.507514  0.621855  0.736195  0.922109
  1439.069946  0.198469  0.501036  0.614360  0.727685  0.914237
  1442.599976  0.195468  0.496179  0.608709  0.721238  0.906020
  1446.140015  0.189381  0.492600  0.604582  0.716565  0.900867
  1449.680054  0.188730  0.489909  0.601459  0.713009  0.896881
  1453.219971  0.187887  0.488049  0.599304  0.710560  0.890978
  1456.760010  0.189291  0.486909  0.598031  0.709153  0.891178
  1460.300049  0.187003  0.485870  0.596963  0.708055  0.893623
  1463.839966  0.187295  0.485724  0.596903  0.708081  0.897680
  1467.380005  0.185504  0.485680  0.596970  0.708259  0.895937
  1470.920044  0.186877  0.486205  0.597661  0.709117  0.894565
  1474.459961  0.187829  0.486407  0.598144  0.709881  0.893645
  1478.010010  0.187094  0.487182  0.599093  0.711003  0.895488
  1481.550049  0.187935  0.487737  0.599865  0.711992  0.897907
  1485.089966  0.188734  0.488325  0.600754  0.713184  0.900125
  1488.640015  0.188561  0.488854  0.601555  0.714256  0.905080
  1492.180054  0.188859  0.490032  0.602992  0.715953  0.904177
  1495.729980  0.188709  0.490865  0.604155  0.717445  0.902876
  1499.270020  0.189673  0.492229  0.605745  0.719262  0.908230
  1502.819946  0.191934  0.493433  0.607332  0.721230  0.912692
  1506.369995  0.191221  0.494877  0.609162  0.723447  0.915716
  1509.910034  0.191874  0.496120  0.610713  0.725306  0.917509
  1513.459961  0.191800  0.497475  0.612451  0.727428  0.919001
  1517.010010  0.194364  0.498518  0.613836  0.729155  0.916037
  1520.560059  0.191418  0.499544  0.615190  0.730836  0.917684
  1524.109985  0.193037  0.500242  0.616194  0.732146  0.919592
  1527.660034  0.193755  0.500895  0.617096  0.733296  0.921943
  1531.209961  0.192581  0.500903  0.617320  0.733737  0.929492
  1534.760010  0.191501  0.501326  0.617812  0.734298  0.930062
  1538.319946  0.194131  0.501110  0.617690  0.734270  0.931512
  1541.869995  0.195274  0.500965  0.617542  0.734119  0.927535
  1545.420044  0.192412  0.500355  0.617020  0.733685  0.931543
  1548.979980  0.191427  0.499789  0.616480  0.733172  0.928810
  1552.530029  0.193100  0.498938  0.615654  0.732370  0.929618
  1556.089966  0.190117  0.498104  0.614764  0.731425  0.922959
  1559.640015  0.188966  0.496860  0.613501  0.730142  0.926625
  1563.199951  0.189333  0.496043  0.612537  0.729030  0.921431
  1566.750000  0.189486  0.495028  0.611577  0.728125  0.920704
  1570.310059  0.188736  0.494153  0.610679  0.727205  0.915813
  1573.869995  0.186230  0.493374  0.609945  0.726515  0.918342
  1577.430054  0.184330  0.492879  0.609376  0.725874  0.917017
  1580.989990  0.184789  0.492058  0.608649  0.725240  0.916336
  1584.550049  0.182459  0.491677  0.608332  0.724987  0.907879
  1588.109985  0.184151  0.490974  0.607678  0.724382  0.909330
  1591.670044  0.181013  0.491045  0.607828  0.724611  0.907513
  1595.229980  0.180896  0.490423  0.607260  0.724097  0.907174
  1598.790039  0.177701  0.490127  0.607014  0.723902  0.904758
  1602.349976  0.177609  0.489728  0.606696  0.723664  0.903013
  1605.920044  0.177650  0.489145  0.606190  0.723235  0.900784
  1609.479980  0.174195  0.488458  0.605581  0.722703  0.899297
  1613.040039  0.173932  0.487315  0.604426  0.721536  0.894303
  1616.609985  0.173564  0.485864  0.602949  0.720035  0.882732
  1620.170044  0.172773  0.484255  0.601377  0.718499  0.880403
  1623.739990  0.173558  0.482053  0.599273  0.716493  0.880119
  1627.310059  0.168937  0.479954  0.597353  0.714753  0.873134
  1630.869995  0.165481  0.477334  0.594892  0.712451  0.876442
  1634.439941  0.163454  0.475664  0.593399  0.711134  0.871016
  1638.010010  0.161739  0.474245  0.592190  0.710135  0.873643
  1641.579956  0.163038  0.473679  0.591788  0.709898  0.870550
  1645.150024  0.160656  0.473117  0.591300  0.709482  0.875684
  1648.709961  0.159247  0.472726  0.590798  0.708871  0.874004
  1652.290039  0.157995  0.472078  0.589960  0.707841  0.872364
  1655.859985  0.157896  0.469927  0.587899  0.705870  0.872993
  1659.430054  0.151607  0.465565  0.584077  0.702588  0.866944
  1663.000000  0.141795  0.459182  0.578845  0.698508  0.861420
  1666.569946  0.133032  0.451473  0.572786  0.694099  0.859236
  1670.140015  0.120103  0.443002  0.566330  0.689659  0.852534
  1673.719971  0.113441  0.435154  0.560237  0.685319  0.847244
  1677.290039  0.105973  0.429302  0.555248  0.681194  0.840237
  1680.869995  0.105493  0.425154  0.550912  0.676670  0.834366
  1684.439941  0.102176  0.422337  0.546972  0.671606  0.823988
  1688.020020  0.110531  0.419823  0.542405  0.664987  0.812863
  1691.589966  0.108796  0.416981  0.537063  0.657145  0.807571
  1695.170044  0.108405  0.414302  0.531572  0.648841  0.797905
  1698.750000  0.122964  0.411846  0.525409  0.638972  0.789008
  1702.329956  0.129071  0.410391  0.520066  0.629741  0.773189
  1705.910034  0.132250  0.408171  0.514500  0.620829  0.769760
  1709.489990  0.132350  0.405502  0.508715  0.611928  0.763170
  1713.069946  0.135706  0.401552  0.501985  0.602418  0.746350
  1716.650024  0.131789  0.397034  0.494111  0.591187  0.728632
  1720.229980  0.141789  0.390666  0.484743  0.578819  0.731426
