ENVI ASCII Plot File [Sun Apr 06 16:12:42 2025]
Column 1: Wavelength
Column 2: Min: ROI #15~~2##255,0,0
Column 3: Mean-StdDev: ROI #15~~21##0,200,0
Column 4: Mean: ROI #15~~0##0,0,0
Column 5: Mean+StdDev: ROI #15~~21##0,200,0
Column 6: Max: ROI #15~~2##255,0,0
   935.609985  0.241407  0.415775  0.487848  0.559921  0.709573
   939.059998  0.245517  0.418284  0.490407  0.562530  0.701672
   942.520020  0.255393  0.433527  0.515430  0.597332  0.755328
   945.979980  0.239870  0.443585  0.535518  0.627451  0.776698
   949.429993  0.248093  0.450951  0.549314  0.647678  0.820432
   952.890015  0.240747  0.458125  0.559835  0.661545  0.836524
   956.349976  0.245025  0.463563  0.567285  0.671007  0.851793
   959.809998  0.247094  0.467761  0.572566  0.677371  0.858600
   963.270020  0.250056  0.471635  0.577339  0.683042  0.865917
   966.729980  0.252499  0.474976  0.581574  0.688171  0.875107
   970.190002  0.255479  0.478595  0.585808  0.693021  0.880781
   973.650024  0.255131  0.481477  0.589388  0.697300  0.884405
   977.109985  0.257057  0.484556  0.593075  0.701593  0.892223
   980.580017  0.257023  0.487656  0.596853  0.706050  0.896973
   984.039978  0.261115  0.490835  0.600699  0.710562  0.902848
   987.510010  0.262803  0.493760  0.604189  0.714619  0.906313
   990.969971  0.265566  0.496863  0.607928  0.718993  0.913782
   994.429993  0.266032  0.499968  0.611662  0.723356  0.918480
   997.900024  0.270120  0.503206  0.615516  0.727825  0.926638
  1001.369995  0.271658  0.506201  0.619067  0.731932  0.929967
  1004.830017  0.272752  0.509186  0.622688  0.736191  0.936248
  1008.299988  0.275927  0.512305  0.626412  0.740520  0.939622
  1011.770020  0.275076  0.515612  0.630332  0.745052  0.947748
  1015.239990  0.280147  0.518601  0.633888  0.749175  0.952554
  1018.710022  0.282284  0.521565  0.637441  0.753316  0.959205
  1022.179993  0.282046  0.524614  0.641085  0.757556  0.962446
  1025.650024  0.283284  0.527700  0.644770  0.761840  0.970245
  1029.119995  0.287191  0.530619  0.648302  0.765985  0.974241
  1032.589966  0.286858  0.533778  0.652009  0.770240  0.980493
  1036.060059  0.289560  0.536720  0.655494  0.774267  0.985195
  1039.530029  0.290441  0.539495  0.658913  0.778332  0.989740
  1043.000000  0.291080  0.542430  0.662407  0.782383  0.995260
  1046.479980  0.292413  0.545459  0.665969  0.786480  1.000076
  1049.949951  0.294521  0.548289  0.669336  0.790382  1.006548
  1053.430054  0.297219  0.551030  0.672627  0.794224  1.011974
  1056.900024  0.298447  0.553836  0.676003  0.798171  1.017097
  1060.380005  0.299064  0.556577  0.679310  0.802044  1.022132
  1063.849976  0.300343  0.559346  0.682622  0.805899  1.028241
  1067.329956  0.301096  0.562092  0.685863  0.809633  1.031992
  1070.810059  0.301971  0.564759  0.689017  0.813276  1.035206
  1074.290039  0.303918  0.567410  0.692181  0.816953  1.042154
  1077.760010  0.306987  0.569925  0.695222  0.820519  1.047875
  1081.239990  0.309061  0.572496  0.698303  0.824111  1.051556
  1084.719971  0.307427  0.575018  0.701310  0.827603  1.057237
  1088.199951  0.306893  0.577322  0.704063  0.830805  1.061602
  1091.680054  0.309999  0.579475  0.706711  0.833947  1.064172
  1095.170044  0.312012  0.581743  0.709445  0.837146  1.068956
  1098.650024  0.312981  0.584031  0.712144  0.840256  1.074947
  1102.130005  0.312785  0.586017  0.714551  0.843085  1.078191
  1105.609985  0.312902  0.587829  0.716743  0.845657  1.080303
  1109.099976  0.313122  0.589566  0.718838  0.848110  1.083530
  1112.579956  0.314700  0.591264  0.720933  0.850602  1.084331
  1116.069946  0.314812  0.592859  0.722955  0.853050  1.088652
  1119.550049  0.313915  0.594469  0.724917  0.855365  1.089801
  1123.040039  0.313660  0.595813  0.726605  0.857398  1.090765
  1126.520020  0.313492  0.596854  0.727943  0.859031  1.092876
  1130.010010  0.310227  0.597274  0.728679  0.860084  1.092439
  1133.500000  0.307522  0.597266  0.728928  0.860590  1.087621
  1136.989990  0.305577  0.596706  0.728761  0.860816  1.082815
  1140.469971  0.304225  0.596405  0.728790  0.861175  1.076258
  1143.959961  0.303902  0.596414  0.729111  0.861809  1.075075
  1147.449951  0.303893  0.597128  0.729979  0.862830  1.077268
  1150.939941  0.304541  0.598316  0.731175  0.864035  1.083725
  1154.430054  0.306920  0.599676  0.732362  0.865048  1.091571
  1157.930054  0.308789  0.600367  0.732935  0.865503  1.094940
  1161.420044  0.311200  0.600658  0.733020  0.865383  1.099796
  1164.910034  0.312028  0.600305  0.732569  0.864832  1.101702
  1168.400024  0.309669  0.599992  0.732129  0.864266  1.103481
  1171.900024  0.313093  0.599562  0.731610  0.863659  1.102893
  1175.390015  0.311317  0.599043  0.730994  0.862945  1.101519
  1178.890015  0.313633  0.598507  0.730356  0.862206  1.101946
  1182.380005  0.310021  0.598117  0.729910  0.861702  1.100628
  1185.880005  0.309255  0.598069  0.729891  0.861712  1.099793
  1189.369995  0.309460  0.598467  0.730456  0.862444  1.099616
  1192.869995  0.310742  0.599230  0.731470  0.863710  1.101370
  1196.369995  0.308906  0.600437  0.732990  0.865543  1.102468
  1199.869995  0.311765  0.601744  0.734614  0.867484  1.103939
  1203.369995  0.311153  0.603086  0.736399  0.869712  1.108581
  1206.869995  0.312377  0.604665  0.738286  0.871908  1.109528
  1210.369995  0.313048  0.606482  0.740483  0.874484  1.112106
  1213.869995  0.312404  0.608641  0.743102  0.877564  1.118676
  1217.369995  0.313115  0.611163  0.746086  0.881009  1.123262
  1220.869995  0.313391  0.613636  0.749097  0.884559  1.131735
  1224.369995  0.316235  0.616341  0.752334  0.888327  1.135277
  1227.869995  0.318673  0.619070  0.755575  0.892080  1.141938
  1231.380005  0.320720  0.621717  0.758660  0.895602  1.145807
  1234.880005  0.322388  0.624129  0.761556  0.898984  1.150771
  1238.390015  0.325290  0.626436  0.764298  0.902160  1.156647
  1241.890015  0.327151  0.628570  0.766837  0.905104  1.163794
  1245.400024  0.328135  0.630435  0.769125  0.907814  1.165804
  1248.900024  0.327617  0.632231  0.771325  0.910419  1.168981
  1252.410034  0.330808  0.633985  0.773400  0.912814  1.175331
  1255.920044  0.329572  0.635643  0.775415  0.915187  1.179113
  1259.420044  0.331660  0.637131  0.777258  0.917385  1.179737
  1262.930054  0.331584  0.638368  0.778843  0.919318  1.186330
  1266.439941  0.335419  0.639897  0.780563  0.921229  1.185288
  1269.949951  0.332221  0.641190  0.782199  0.923207  1.189863
  1273.459961  0.339762  0.642595  0.783897  0.925200  1.191960
  1276.969971  0.334884  0.643740  0.785417  0.927094  1.196166
  1280.479980  0.335329  0.645204  0.787151  0.929098  1.198560
  1283.989990  0.333797  0.646485  0.788834  0.931182  1.204180
  1287.510010  0.335396  0.647913  0.790519  0.933125  1.203576
  1291.020020  0.336460  0.649057  0.792062  0.935068  1.206044
  1294.530029  0.335385  0.650350  0.793627  0.936905  1.207740
  1298.050049  0.336172  0.651157  0.794780  0.938403  1.210334
  1301.560059  0.338452  0.652240  0.795972  0.939705  1.213156
  1305.079956  0.336807  0.652992  0.796974  0.940956  1.213980
  1308.589966  0.336565  0.653863  0.797968  0.942074  1.211484
  1312.109985  0.337258  0.654131  0.798520  0.942909  1.219904
  1315.619995  0.336249  0.654494  0.798897  0.943301  1.217312
  1319.140015  0.334052  0.654158  0.798707  0.943256  1.217034
  1322.660034  0.336325  0.654051  0.798499  0.942948  1.214389
  1326.180054  0.334871  0.653055  0.797537  0.942020  1.214930
  1329.699951  0.334018  0.651891  0.796204  0.940518  1.210465
  1333.219971  0.333945  0.649859  0.793951  0.938043  1.209068
  1336.739990  0.328439  0.647562  0.791302  0.935043  1.207066
  1340.260010  0.330055  0.644700  0.788085  0.931469  1.201862
  1343.780029  0.325316  0.641539  0.784377  0.927216  1.197219
  1347.300049  0.325236  0.637799  0.780097  0.922394  1.187738
  1350.819946  0.320738  0.634040  0.775714  0.917388  1.180524
  1354.349976  0.318534  0.630420  0.771431  0.912442  1.173013
  1357.869995  0.314230  0.627117  0.767442  0.907767  1.170628
  1361.390015  0.316455  0.623824  0.763592  0.903361  1.162836
  1364.920044  0.311121  0.620680  0.759981  0.899282  1.157841
  1368.439941  0.307947  0.617427  0.756327  0.895227  1.150849
  1371.969971  0.303767  0.614427  0.753026  0.891625  1.145521
  1375.500000  0.303680  0.612095  0.750380  0.888665  1.139581
  1379.020020  0.303888  0.610145  0.748021  0.885898  1.138202
  1382.550049  0.302940  0.607830  0.745260  0.882690  1.130978
  1386.079956  0.296822  0.604665  0.741750  0.878834  1.130615
  1389.609985  0.295083  0.600922  0.737411  0.873899  1.118784
  1393.140015  0.293865  0.596632  0.732237  0.867843  1.111817
  1396.670044  0.290628  0.591230  0.725892  0.860555  1.102524
  1400.199951  0.286677  0.585115  0.718701  0.852287  1.091395
  1403.729980  0.282790  0.577763  0.709981  0.842199  1.076837
  1407.260010  0.275363  0.569189  0.699845  0.830500  1.058785
  1410.790039  0.272103  0.559568  0.688390  0.817211  1.042566
  1414.319946  0.265700  0.549114  0.676072  0.803030  1.023202
  1417.859985  0.259018  0.538155  0.663007  0.787858  1.001854
  1421.390015  0.253374  0.527447  0.650115  0.772784  0.981286
  1424.920044  0.246673  0.516786  0.637310  0.757835  0.961335
  1428.459961  0.244737  0.506963  0.625587  0.744212  0.941509
  1431.989990  0.234270  0.498120  0.614950  0.731780  0.925857
  1435.530029  0.237660  0.490827  0.606181  0.721535  0.912671
  1439.069946  0.230361  0.484564  0.598750  0.712936  0.902997
  1442.599976  0.229010  0.479608  0.592829  0.706050  0.894546
  1446.140015  0.228877  0.475804  0.588271  0.700738  0.886047
  1449.680054  0.221820  0.472896  0.584835  0.696773  0.880274
  1453.219971  0.221820  0.470695  0.582168  0.693641  0.881096
  1456.760010  0.222829  0.469037  0.580217  0.691398  0.876693
  1460.300049  0.219394  0.467554  0.578635  0.689715  0.878212
  1463.839966  0.220958  0.466995  0.577930  0.688864  0.876375
  1467.380005  0.218773  0.466410  0.577397  0.688385  0.875485
  1470.920044  0.218243  0.466547  0.577585  0.688624  0.874924
  1474.459961  0.219339  0.466524  0.577744  0.688964  0.882870
  1478.010010  0.220872  0.467134  0.578498  0.689863  0.881729
  1481.550049  0.218144  0.467555  0.579185  0.690814  0.886994
  1485.089966  0.222243  0.468122  0.579931  0.691741  0.886250
  1488.640015  0.221660  0.468397  0.580465  0.692533  0.889279
  1492.180054  0.222255  0.469301  0.581537  0.693773  0.889124
  1495.729980  0.219875  0.469964  0.582494  0.695023  0.895021
  1499.270020  0.224358  0.471110  0.583965  0.696821  0.892796
  1502.819946  0.223673  0.472115  0.585348  0.698581  0.895130
  1506.369995  0.224383  0.473278  0.586808  0.700338  0.898546
  1509.910034  0.223873  0.474298  0.588204  0.702110  0.900133
  1513.459961  0.224089  0.475452  0.589660  0.703868  0.903838
  1517.010010  0.224605  0.476244  0.590822  0.705399  0.905336
  1520.560059  0.223207  0.477139  0.591986  0.706833  0.908623
  1524.109985  0.225335  0.477794  0.592952  0.708110  0.905545
  1527.660034  0.222917  0.478470  0.593803  0.709136  0.909191
  1531.209961  0.224973  0.478519  0.594094  0.709668  0.910385
  1534.760010  0.221213  0.478868  0.594507  0.710146  0.911814
  1538.319946  0.226328  0.478713  0.594511  0.710309  0.909959
  1541.869995  0.222311  0.478704  0.594474  0.710243  0.911398
  1545.420044  0.227103  0.478063  0.593911  0.709758  0.908882
  1548.979980  0.220586  0.477379  0.593212  0.709044  0.912559
  1552.530029  0.222883  0.476831  0.592556  0.708281  0.908910
  1556.089966  0.220984  0.475968  0.591669  0.707369  0.911263
  1559.640015  0.221664  0.474923  0.590575  0.706227  0.902768
  1563.199951  0.218586  0.474104  0.589730  0.705356  0.904290
  1566.750000  0.218247  0.473233  0.588772  0.704312  0.900021
  1570.310059  0.216543  0.472355  0.587905  0.703455  0.905398
  1573.869995  0.218131  0.471671  0.587098  0.702525  0.901239
  1577.430054  0.217988  0.471313  0.586723  0.702133  0.902539
  1580.989990  0.216807  0.470604  0.585998  0.701392  0.900245
  1584.550049  0.217787  0.470267  0.585750  0.701233  0.900821
  1588.109985  0.216430  0.469572  0.585139  0.700706  0.898266
  1591.670044  0.213419  0.469769  0.585400  0.701030  0.900081
  1595.229980  0.215541  0.469241  0.584912  0.700582  0.895424
  1598.790039  0.214964  0.469115  0.584862  0.700608  0.898675
  1602.349976  0.212362  0.468907  0.584637  0.700367  0.897162
  1605.920044  0.211710  0.468452  0.584329  0.700205  0.893123
  1609.479980  0.209328  0.467927  0.583816  0.699705  0.891875
  1613.040039  0.211559  0.467014  0.582908  0.698801  0.887425
  1616.609985  0.205455  0.465916  0.581706  0.697495  0.884559
  1620.170044  0.205868  0.464517  0.580297  0.696076  0.884015
  1623.739990  0.201510  0.462573  0.578268  0.693964  0.879363
  1627.310059  0.201865  0.460770  0.576415  0.692059  0.866471
  1630.869995  0.194824  0.458555  0.574293  0.690031  0.861636
  1634.439941  0.196230  0.457187  0.572938  0.688689  0.852988
  1638.010010  0.193858  0.455840  0.571792  0.687743  0.852202
  1641.579956  0.196896  0.455448  0.571487  0.687526  0.850153
  1645.150024  0.192589  0.455068  0.571239  0.687410  0.852023
  1648.709961  0.196230  0.454895  0.571019  0.687144  0.849486
  1652.290039  0.192926  0.454552  0.570582  0.686611  0.853264
  1655.859985  0.192855  0.452643  0.568573  0.684502  0.845173
  1659.430054  0.186398  0.448569  0.564812  0.681055  0.832755
  1663.000000  0.183339  0.442634  0.559711  0.676787  0.829557
  1666.569946  0.177804  0.435185  0.553796  0.672407  0.819499
  1670.140015  0.174230  0.426996  0.547674  0.668353  0.812951
  1673.719971  0.170048  0.419497  0.542102  0.664708  0.812170
  1677.290039  0.168637  0.413831  0.537510  0.661190  0.808822
  1680.869995  0.164000  0.410210  0.533806  0.657402  0.803469
  1684.439941  0.166394  0.407942  0.530327  0.652713  0.794364
  1688.020020  0.166263  0.405924  0.526338  0.646753  0.790712
  1691.589966  0.169438  0.403586  0.521494  0.639401  0.784854
  1695.170044  0.172435  0.401752  0.516882  0.632012  0.779775
  1698.750000  0.171144  0.400346  0.511697  0.623048  0.764459
  1702.329956  0.175297  0.400111  0.507751  0.615390  0.754178
  1705.910034  0.176606  0.398952  0.503363  0.607774  0.748604
  1709.489990  0.177000  0.396682  0.498084  0.599486  0.738160
  1713.069946  0.170999  0.393158  0.491313  0.589469  0.727466
  1716.650024  0.191894  0.390087  0.484577  0.579066  0.704375
  1720.229980  0.182162  0.384635  0.476375  0.568115  0.677020
