ENVI ASCII Plot File [Sun Apr 06 16:34:01 2025]
Column 1: Wavelength
Column 2: Min: ROI #39~~2##255,0,0
Column 3: Mean-StdDev: ROI #39~~21##0,200,0
Column 4: Mean: ROI #39~~0##0,0,0
Column 5: Mean+StdDev: ROI #39~~21##0,200,0
Column 6: Max: ROI #39~~2##255,0,0
   935.609985  0.268969  0.469512  0.545943  0.622374  0.740769
   939.059998  0.270504  0.472438  0.548958  0.625478  0.740393
   942.520020  0.213404  0.491916  0.578128  0.664341  0.775732
   945.979980  0.205733  0.505290  0.600417  0.695545  0.834509
   949.429993  0.200471  0.515008  0.616175  0.717342  0.881425
   952.890015  0.206387  0.522252  0.626580  0.730908  0.902511
   956.349976  0.200980  0.527870  0.633993  0.740116  0.922140
   959.809998  0.202504  0.531842  0.638972  0.746102  0.933001
   963.270020  0.207665  0.535594  0.643500  0.751406  0.937419
   966.729980  0.210673  0.538575  0.647205  0.755835  0.942884
   970.190002  0.212427  0.541900  0.651136  0.760372  0.949327
   973.650024  0.211777  0.544649  0.654437  0.764225  0.953891
   977.109985  0.213718  0.547324  0.657731  0.768139  0.961223
   980.580017  0.214319  0.550337  0.661219  0.772101  0.964683
   984.039978  0.217385  0.553089  0.664532  0.775976  0.971408
   987.510010  0.218603  0.555785  0.667699  0.779613  0.976367
   990.969971  0.221354  0.558640  0.671043  0.783447  0.981225
   994.429993  0.219498  0.561443  0.674382  0.787322  0.987134
   997.900024  0.224810  0.564418  0.677869  0.791321  0.990973
  1001.369995  0.223589  0.567093  0.681035  0.794977  0.996951
  1004.830017  0.227298  0.569885  0.684303  0.798722  0.999333
  1008.299988  0.227902  0.572700  0.687651  0.802601  1.005744
  1011.770020  0.231192  0.575741  0.691152  0.806563  1.010057
  1015.239990  0.232089  0.578485  0.694394  0.810303  1.016086
  1018.710022  0.236565  0.581200  0.697567  0.813934  1.019436
  1022.179993  0.235398  0.583998  0.700922  0.817846  1.025538
  1025.650024  0.237553  0.586887  0.704270  0.821653  1.030598
  1029.119995  0.239597  0.589557  0.707479  0.825400  1.039500
  1032.589966  0.240812  0.592359  0.710751  0.829142  1.042398
  1036.060059  0.244003  0.595032  0.713890  0.832747  1.046032
  1039.530029  0.245392  0.597689  0.717059  0.836430  1.050470
  1043.000000  0.245241  0.600421  0.720249  0.840078  1.056530
  1046.479980  0.248411  0.603190  0.723466  0.843741  1.062057
  1049.949951  0.251029  0.605822  0.726560  0.847299  1.065943
  1053.430054  0.251284  0.608327  0.729520  0.850714  1.071342
  1056.900024  0.252899  0.610824  0.732488  0.854152  1.077207
  1060.380005  0.254768  0.613325  0.735437  0.857549  1.082153
  1063.849976  0.257324  0.615771  0.738332  0.860892  1.085702
  1067.329956  0.257353  0.618240  0.741230  0.864220  1.091936
  1070.810059  0.258471  0.620648  0.744068  0.867488  1.095726
  1074.290039  0.261298  0.623047  0.746887  0.870727  1.100001
  1077.760010  0.263902  0.625289  0.749565  0.873842  1.105072
  1081.239990  0.264616  0.627515  0.752217  0.876919  1.108374
  1084.719971  0.264899  0.629710  0.754823  0.879937  1.111648
  1088.199951  0.266899  0.631696  0.757209  0.882722  1.116371
  1091.680054  0.267956  0.633599  0.759484  0.885369  1.120941
  1095.170044  0.267718  0.635470  0.761737  0.888003  1.123236
  1098.650024  0.268840  0.637284  0.763871  0.890458  1.126431
  1102.130005  0.272130  0.638789  0.765696  0.892604  1.128881
  1105.609985  0.272475  0.640114  0.767306  0.894498  1.131443
  1109.099976  0.273353  0.641313  0.768762  0.896211  1.132295
  1112.579956  0.274141  0.642469  0.770192  0.897914  1.133733
  1116.069946  0.275838  0.643540  0.771523  0.899505  1.134284
  1119.550049  0.276226  0.644504  0.772736  0.900968  1.133193
  1123.040039  0.276977  0.645152  0.773604  0.902056  1.128606
  1126.520020  0.277842  0.645342  0.773981  0.902621  1.121442
  1130.010010  0.277646  0.644894  0.773666  0.902437  1.114946
  1133.500000  0.275728  0.643828  0.772734  0.901641  1.116419
  1136.989990  0.276342  0.642067  0.771257  0.900446  1.116093
  1140.469971  0.275839  0.640623  0.770101  0.899579  1.116342
  1143.959961  0.274284  0.639820  0.769509  0.899198  1.119130
  1147.449951  0.275675  0.640058  0.769749  0.899439  1.118221
  1150.939941  0.275161  0.640990  0.770514  0.900038  1.116334
  1154.430054  0.274393  0.642060  0.771218  0.900377  1.114416
  1157.930054  0.275369  0.642332  0.771222  0.900111  1.113229
  1161.420044  0.274390  0.641921  0.770470  0.899018  1.110828
  1164.910034  0.273641  0.640840  0.769130  0.897421  1.112311
  1168.400024  0.274132  0.639862  0.767887  0.895913  1.114325
  1171.900024  0.273547  0.638757  0.766559  0.894361  1.114042
  1175.390015  0.271205  0.637605  0.765190  0.892775  1.112745
  1178.890015  0.269939  0.636495  0.763899  0.891303  1.112131
  1182.380005  0.269987  0.635666  0.762975  0.890283  1.109426
  1185.880005  0.268746  0.635235  0.762501  0.889767  1.109269
  1189.369995  0.271222  0.635341  0.762712  0.890083  1.103742
  1192.869995  0.268783  0.635932  0.763564  0.891196  1.103733
  1196.369995  0.273187  0.637040  0.764907  0.892774  1.105282
  1199.869995  0.271547  0.638183  0.766424  0.894665  1.106672
  1203.369995  0.272737  0.639472  0.768041  0.896609  1.108708
  1206.869995  0.273617  0.640814  0.769717  0.898620  1.109583
  1210.369995  0.275044  0.642523  0.771794  0.901065  1.114757
  1213.869995  0.276625  0.644629  0.774308  0.903988  1.118269
  1217.369995  0.280303  0.647203  0.777326  0.907450  1.122422
  1220.869995  0.279672  0.649863  0.780498  0.911132  1.130914
  1224.369995  0.283547  0.652592  0.783726  0.914860  1.140602
  1227.869995  0.283316  0.655310  0.786923  0.918537  1.151069
  1231.380005  0.286689  0.657865  0.789931  0.921997  1.159765
  1234.880005  0.287028  0.660127  0.792628  0.925129  1.163546
  1238.390015  0.289817  0.662376  0.795213  0.928050  1.168807
  1241.890015  0.289257  0.664310  0.797543  0.930777  1.177625
  1245.400024  0.291509  0.666016  0.799578  0.933141  1.182778
  1248.900024  0.293003  0.667632  0.801543  0.935453  1.185630
  1252.410034  0.294021  0.668951  0.803183  0.937415  1.186908
  1255.920044  0.295476  0.670346  0.804884  0.939422  1.192486
  1259.420044  0.295029  0.671498  0.806323  0.941147  1.194204
  1262.930054  0.296931  0.672549  0.807615  0.942681  1.197698
  1266.439941  0.296237  0.673693  0.808949  0.944205  1.200920
  1269.949951  0.297347  0.674584  0.810117  0.945651  1.198370
  1273.459961  0.298620  0.675681  0.811438  0.947194  1.204524
  1276.969971  0.298211  0.676567  0.812636  0.948706  1.206929
  1280.479980  0.299190  0.677789  0.814073  0.950357  1.210419
  1283.989990  0.301445  0.678783  0.815365  0.951946  1.211879
  1287.510010  0.301279  0.679970  0.816785  0.953599  1.215027
  1291.020020  0.302355  0.680791  0.817951  0.955110  1.218112
  1294.530029  0.302868  0.681829  0.819138  0.956447  1.218408
  1298.050049  0.305563  0.682433  0.819966  0.957498  1.220403
  1301.560059  0.303402  0.683088  0.820817  0.958547  1.222642
  1305.079956  0.305658  0.683633  0.821497  0.959360  1.219807
  1308.589966  0.302553  0.683998  0.821971  0.959943  1.222907
  1312.109985  0.304908  0.683948  0.822112  0.960276  1.220776
  1315.619995  0.302868  0.683868  0.822064  0.960261  1.223214
  1319.140015  0.304364  0.683227  0.821458  0.959690  1.219446
  1322.660034  0.302524  0.682602  0.820676  0.958751  1.217256
  1326.180054  0.300414  0.681007  0.819035  0.957063  1.217044
  1329.699951  0.298184  0.679254  0.816989  0.954724  1.214047
  1333.219971  0.299216  0.676510  0.813916  0.951322  1.206862
  1336.739990  0.293764  0.673372  0.810317  0.947262  1.200825
  1340.260010  0.294834  0.669867  0.806367  0.942866  1.192674
  1343.780029  0.292102  0.666052  0.801917  0.937781  1.183103
  1347.300049  0.286554  0.661721  0.796930  0.932140  1.176725
  1350.819946  0.284028  0.657480  0.791995  0.926510  1.169586
  1354.349976  0.282626  0.653562  0.787385  0.921208  1.164750
  1357.869995  0.278992  0.649798  0.782973  0.916149  1.156358
  1361.390015  0.276950  0.646251  0.778826  0.911401  1.148699
  1364.920044  0.274638  0.642624  0.774705  0.906786  1.140606
  1368.439941  0.269745  0.639019  0.770603  0.902188  1.131918
  1371.969971  0.268103  0.635676  0.766840  0.898004  1.124129
  1375.500000  0.265530  0.632996  0.763870  0.894745  1.117279
  1379.020020  0.269957  0.630927  0.761313  0.891699  1.109748
  1382.550049  0.262711  0.628281  0.758339  0.888397  1.104957
  1386.079956  0.263242  0.624752  0.754431  0.884110  1.095325
  1389.609985  0.257690  0.620482  0.749513  0.878544  1.087742
  1393.140015  0.258464  0.615825  0.743906  0.871987  1.078448
  1396.670044  0.251198  0.610069  0.737259  0.864448  1.067740
  1400.199951  0.247364  0.603741  0.729794  0.855846  1.060398
  1403.729980  0.241635  0.596072  0.720881  0.845690  1.044402
  1407.260010  0.238571  0.587520  0.710843  0.834166  1.028558
  1410.790039  0.232019  0.577925  0.699586  0.821248  1.014559
  1414.319946  0.227782  0.567559  0.687491  0.807422  0.994397
  1417.859985  0.218455  0.556790  0.674804  0.792819  0.975967
  1421.390015  0.211775  0.546340  0.662344  0.778349  0.957176
  1424.920044  0.207136  0.535906  0.650080  0.764254  0.941421
  1428.459961  0.202845  0.526662  0.639100  0.751538  0.924867
  1431.989990  0.197020  0.518178  0.629071  0.739964  0.908406
  1435.530029  0.192680  0.511137  0.620733  0.730329  0.896239
  1439.069946  0.188925  0.505264  0.613753  0.722241  0.888019
  1442.599976  0.186564  0.500424  0.607994  0.715563  0.877285
  1446.140015  0.185145  0.496592  0.603461  0.710329  0.871903
  1449.680054  0.183308  0.493429  0.599824  0.706218  0.866759
  1453.219971  0.183790  0.490948  0.596937  0.702925  0.862317
  1456.760010  0.181366  0.489286  0.594902  0.700517  0.861841
  1460.300049  0.179149  0.487464  0.592922  0.698381  0.858885
  1463.839966  0.178956  0.486597  0.591899  0.697201  0.858045
  1467.380005  0.180585  0.485837  0.591041  0.696245  0.857884
  1470.920044  0.177544  0.485581  0.590857  0.696133  0.858678
  1474.459961  0.180965  0.485332  0.590708  0.696084  0.859603
  1478.010010  0.177659  0.485616  0.591087  0.696558  0.865139
  1481.550049  0.181890  0.485774  0.591369  0.696964  0.861278
  1485.089966  0.178406  0.486040  0.591845  0.697651  0.863199
  1488.640015  0.180767  0.486058  0.591947  0.697836  0.861300
  1492.180054  0.177832  0.486497  0.592530  0.698563  0.863483
  1495.729980  0.181256  0.486841  0.593122  0.699402  0.865646
  1499.270020  0.179930  0.487805  0.594273  0.700742  0.872387
  1502.819946  0.181692  0.488524  0.595259  0.701994  0.873653
  1506.369995  0.179281  0.489426  0.596417  0.703409  0.877434
  1509.910034  0.182391  0.490310  0.597592  0.704873  0.880625
  1513.459961  0.181647  0.491111  0.598669  0.706228  0.879463
  1517.010010  0.181765  0.491648  0.599480  0.707311  0.884930
  1520.560059  0.184182  0.492433  0.600490  0.708548  0.887529
  1524.109985  0.181135  0.492918  0.601232  0.709547  0.888009
  1527.660034  0.180971  0.493414  0.601883  0.710352  0.885156
  1531.209961  0.181055  0.493334  0.602026  0.710718  0.891785
  1534.760010  0.183125  0.493515  0.602308  0.711101  0.890783
  1538.319946  0.181440  0.493311  0.602166  0.711020  0.892642
  1541.869995  0.183620  0.493169  0.602032  0.710895  0.889692
  1545.420044  0.182431  0.492557  0.601456  0.710355  0.888953
  1548.979980  0.182379  0.491954  0.600795  0.709636  0.892431
  1552.530029  0.179091  0.491090  0.599905  0.708720  0.891342
  1556.089966  0.179059  0.490216  0.598982  0.707747  0.886015
  1559.640015  0.179262  0.489114  0.597868  0.706622  0.888184
  1563.199951  0.180736  0.488277  0.596950  0.705623  0.884473
  1566.750000  0.177656  0.487301  0.595992  0.704683  0.887564
  1570.310059  0.178616  0.486383  0.594973  0.703563  0.881982
  1573.869995  0.177443  0.485504  0.594047  0.702589  0.882549
  1577.430054  0.178382  0.484960  0.593456  0.701952  0.880150
  1580.989990  0.175380  0.484067  0.592594  0.701120  0.879766
  1584.550049  0.178220  0.483570  0.592031  0.700491  0.878174
  1588.109985  0.174137  0.482624  0.591222  0.699820  0.880739
  1591.670044  0.178367  0.482628  0.591184  0.699739  0.877421
  1595.229980  0.176164  0.481920  0.590499  0.699078  0.874654
  1598.790039  0.177060  0.481447  0.590070  0.698694  0.874708
  1602.349976  0.176854  0.480963  0.589578  0.698193  0.873233
  1605.920044  0.175689  0.480156  0.588805  0.697455  0.866923
  1609.479980  0.173916  0.479423  0.588048  0.696673  0.864708
  1613.040039  0.175612  0.478264  0.586797  0.695331  0.860609
  1616.609985  0.171670  0.476798  0.585154  0.693509  0.861796
  1620.170044  0.172969  0.475053  0.583282  0.691511  0.859615
  1623.739990  0.170221  0.472472  0.580632  0.688791  0.855894
  1627.310059  0.168631  0.470038  0.578101  0.686163  0.852295
  1630.869995  0.168269  0.467208  0.575328  0.683447  0.850615
  1634.439941  0.169887  0.464979  0.573148  0.681317  0.845182
  1638.010010  0.164528  0.462930  0.571240  0.679551  0.839389
  1641.579956  0.168277  0.462026  0.570377  0.678729  0.839274
  1645.150024  0.166120  0.461281  0.569649  0.678017  0.839593
  1648.709961  0.165017  0.460699  0.568957  0.677216  0.837737
  1652.290039  0.163694  0.460094  0.568054  0.676013  0.834900
  1655.859985  0.163859  0.457531  0.565461  0.673391  0.833120
  1659.430054  0.161349  0.452361  0.560846  0.669331  0.825549
  1663.000000  0.161451  0.444705  0.554784  0.664862  0.818900
  1666.569946  0.155420  0.435162  0.547880  0.660597  0.811326
  1670.140015  0.151654  0.424663  0.540859  0.657056  0.801181
  1673.719971  0.149715  0.415485  0.534763  0.654040  0.798016
  1677.290039  0.150366  0.408797  0.529982  0.651168  0.796546
  1680.869995  0.147895  0.405252  0.526636  0.648020  0.796128
  1684.439941  0.143549  0.403537  0.523765  0.643993  0.788546
  1688.020020  0.139333  0.402589  0.520544  0.638498  0.786511
  1691.589966  0.143123  0.401296  0.516509  0.631723  0.771244
  1695.170044  0.141105  0.401171  0.513048  0.624926  0.766498
  1698.750000  0.141556  0.401556  0.509343  0.617129  0.762542
  1702.329956  0.136500  0.402855  0.506630  0.610406  0.751869
  1705.910034  0.141731  0.403688  0.503711  0.603735  0.736424
  1709.489990  0.141444  0.402351  0.499336  0.596320  0.720484
  1713.069946  0.141636  0.399995  0.494215  0.588434  0.712321
  1716.650024  0.149415  0.396772  0.487903  0.579034  0.703647
  1720.229980  0.128307  0.392532  0.480972  0.569411  0.697523
