ENVI ASCII Plot File [Sun Apr 06 16:27:10 2025]
Column 1: Wavelength
Column 2: Min: ROI #31~~2##255,0,0
Column 3: Mean-StdDev: ROI #31~~21##0,200,0
Column 4: Mean: ROI #31~~0##0,0,0
Column 5: Mean+StdDev: ROI #31~~21##0,200,0
Column 6: Max: ROI #31~~2##255,0,0
   935.609985  0.238662  0.493452  0.563388  0.633323  0.825453
   939.059998  0.246118  0.496347  0.566406  0.636465  0.822837
   942.520020  0.213042  0.515901  0.596824  0.677748  0.845700
   945.979980  0.189849  0.529334  0.619869  0.710403  0.914432
   949.429993  0.178460  0.538978  0.635869  0.732760  0.950764
   952.890015  0.167334  0.547217  0.647187  0.747157  0.967037
   956.349976  0.169184  0.552909  0.654749  0.756589  0.981042
   959.809998  0.165961  0.557018  0.659903  0.762787  0.991642
   963.270020  0.170217  0.560676  0.664352  0.768028  0.995232
   966.729980  0.172238  0.563907  0.668370  0.772833  1.002791
   970.190002  0.171432  0.567260  0.672281  0.777303  1.008301
   973.650024  0.169015  0.570027  0.675564  0.781102  1.011284
   977.109985  0.176734  0.573088  0.679023  0.784958  1.018443
   980.580017  0.176424  0.575995  0.682449  0.788904  1.024902
   984.039978  0.178137  0.578935  0.685859  0.792783  1.028425
   987.510010  0.176953  0.581653  0.689021  0.796389  1.032620
   990.969971  0.183164  0.584610  0.692424  0.800238  1.038762
   994.429993  0.184163  0.587478  0.695752  0.804027  1.042085
   997.900024  0.186487  0.590603  0.699277  0.807951  1.048196
  1001.369995  0.187277  0.593406  0.702513  0.811621  1.049742
  1004.830017  0.190390  0.596285  0.705833  0.815381  1.055752
  1008.299988  0.190264  0.599232  0.709172  0.819112  1.058036
  1011.770020  0.193217  0.602369  0.712738  0.823107  1.065155
  1015.239990  0.193267  0.605199  0.716054  0.826910  1.068777
  1018.710022  0.198347  0.608020  0.719264  0.830508  1.075209
  1022.179993  0.199147  0.611026  0.722693  0.834360  1.079351
  1025.650024  0.200996  0.613994  0.726111  0.838228  1.084584
  1029.119995  0.202415  0.616824  0.729403  0.841982  1.089556
  1032.589966  0.204496  0.619778  0.732737  0.845696  1.093747
  1036.060059  0.205411  0.622500  0.735898  0.849296  1.099383
  1039.530029  0.208020  0.625263  0.739106  0.852949  1.103833
  1043.000000  0.212237  0.628064  0.742326  0.856588  1.107291
  1046.479980  0.213727  0.630915  0.745558  0.860201  1.111744
  1049.949951  0.214601  0.633602  0.748650  0.863699  1.115361
  1053.430054  0.217586  0.636189  0.751609  0.867028  1.120136
  1056.900024  0.220567  0.638795  0.754613  0.870432  1.124814
  1060.380005  0.221139  0.641357  0.757611  0.873865  1.129285
  1063.849976  0.221468  0.643952  0.760615  0.877278  1.134775
  1067.329956  0.221470  0.646504  0.763536  0.880567  1.136505
  1070.810059  0.224474  0.648984  0.766372  0.883760  1.141801
  1074.290039  0.227469  0.651431  0.769236  0.887041  1.148104
  1077.760010  0.229741  0.653749  0.771938  0.890127  1.151954
  1081.239990  0.232070  0.656110  0.774630  0.893149  1.155484
  1084.719971  0.233259  0.658402  0.777281  0.896161  1.159048
  1088.199951  0.235355  0.660493  0.779698  0.898904  1.162108
  1091.680054  0.236084  0.662448  0.781989  0.901530  1.164555
  1095.170044  0.236310  0.664450  0.784298  0.904146  1.168676
  1098.650024  0.237773  0.666418  0.786524  0.906630  1.171171
  1102.130005  0.239805  0.668074  0.788456  0.908839  1.174095
  1105.609985  0.241241  0.669528  0.790104  0.910680  1.177137
  1109.099976  0.243267  0.670904  0.791631  0.912357  1.178846
  1112.579956  0.244209  0.672226  0.793139  0.914052  1.175928
  1116.069946  0.244612  0.673446  0.794537  0.915628  1.175738
  1119.550049  0.245773  0.674597  0.795733  0.916869  1.172610
  1123.040039  0.246825  0.675564  0.796661  0.917758  1.168413
  1126.520020  0.247848  0.676283  0.797186  0.918089  1.158330
  1130.010010  0.246976  0.676469  0.797045  0.917621  1.139842
  1133.500000  0.247355  0.676115  0.796220  0.916325  1.116330
  1136.989990  0.248219  0.675224  0.794874  0.914524  1.102942
  1140.469971  0.248229  0.674397  0.793798  0.913200  1.101599
  1143.959961  0.245449  0.673841  0.793268  0.912695  1.103984
  1147.449951  0.245723  0.673995  0.793602  0.913210  1.104635
  1150.939941  0.245244  0.674581  0.794510  0.914438  1.105651
  1154.430054  0.247271  0.675077  0.795328  0.915580  1.104894
  1157.930054  0.245011  0.674791  0.795461  0.916131  1.128363
  1161.420044  0.243073  0.674119  0.794939  0.915759  1.143847
  1164.910034  0.241013  0.672838  0.793784  0.914730  1.153858
  1168.400024  0.242020  0.671676  0.792562  0.913448  1.156460
  1171.900024  0.240913  0.670398  0.791236  0.912075  1.155624
  1175.390015  0.240273  0.669228  0.789946  0.910663  1.158310
  1178.890015  0.237741  0.668118  0.788684  0.909250  1.155560
  1182.380005  0.239360  0.667320  0.787730  0.908140  1.153141
  1185.880005  0.237838  0.666968  0.787302  0.907636  1.148699
  1189.369995  0.237055  0.667221  0.787543  0.907865  1.145179
  1192.869995  0.237829  0.667897  0.788287  0.908678  1.142251
  1196.369995  0.240969  0.669040  0.789530  0.910021  1.140566
  1199.869995  0.241099  0.670217  0.790863  0.911509  1.138935
  1203.369995  0.241910  0.671613  0.792447  0.913281  1.135780
  1206.869995  0.242945  0.673093  0.794183  0.915273  1.132591
  1210.369995  0.244056  0.674718  0.796155  0.917592  1.141066
  1213.869995  0.245991  0.676719  0.798581  0.920443  1.148075
  1217.369995  0.246020  0.679002  0.801336  0.923671  1.158589
  1220.869995  0.246420  0.681146  0.804091  0.927037  1.163325
  1224.369995  0.251404  0.683574  0.807032  0.930490  1.176838
  1227.869995  0.250649  0.685935  0.809919  0.933903  1.184578
  1231.380005  0.250820  0.688175  0.812635  0.937096  1.192973
  1234.880005  0.254541  0.690244  0.815198  0.940151  1.198898
  1238.390015  0.256747  0.692347  0.817701  0.943054  1.206824
  1241.890015  0.259830  0.694259  0.819960  0.945661  1.214337
  1245.400024  0.258415  0.695899  0.821978  0.948056  1.217460
  1248.900024  0.259912  0.697482  0.823903  0.950324  1.224147
  1252.410034  0.261576  0.698843  0.825591  0.952339  1.226482
  1255.920044  0.266028  0.700278  0.827311  0.954344  1.230232
  1259.420044  0.267259  0.701515  0.828804  0.956092  1.232972
  1262.930054  0.266103  0.702555  0.830138  0.957720  1.236504
  1266.439941  0.266632  0.703734  0.831516  0.959299  1.235091
  1269.949951  0.268974  0.704758  0.832806  0.960854  1.239347
  1273.459961  0.268881  0.705874  0.834164  0.962454  1.242152
  1276.969971  0.270237  0.706927  0.835475  0.964023  1.246226
  1280.479980  0.269495  0.708175  0.836919  0.965662  1.245184
  1283.989990  0.271841  0.709225  0.838322  0.967420  1.251295
  1287.510010  0.271229  0.710423  0.839784  0.969145  1.249954
  1291.020020  0.272803  0.711422  0.841057  0.970692  1.251095
  1294.530029  0.272804  0.712548  0.842340  0.972132  1.253600
  1298.050049  0.273207  0.713117  0.843159  0.973200  1.255770
  1301.560059  0.275011  0.713944  0.844061  0.974178  1.254855
  1305.079956  0.273212  0.714339  0.844643  0.974946  1.257610
  1308.589966  0.275523  0.714759  0.845201  0.975642  1.257652
  1312.109985  0.274117  0.714816  0.845411  0.976005  1.260844
  1315.619995  0.273561  0.714604  0.845222  0.975839  1.253485
  1319.140015  0.273797  0.713995  0.844622  0.975249  1.255353
  1322.660034  0.272294  0.713327  0.843809  0.974292  1.255349
  1326.180054  0.268716  0.711773  0.842122  0.972472  1.250922
  1329.699951  0.267915  0.709833  0.840009  0.970185  1.251413
  1333.219971  0.264523  0.706963  0.836907  0.966851  1.243533
  1336.739990  0.263513  0.703838  0.833359  0.962881  1.239488
  1340.260010  0.259233  0.700262  0.829356  0.958450  1.231327
  1343.780029  0.255247  0.696326  0.824796  0.953266  1.222880
  1347.300049  0.252790  0.691782  0.819751  0.947719  1.212287
  1350.819946  0.248701  0.687276  0.814682  0.942088  1.209706
  1354.349976  0.243306  0.682948  0.809800  0.936651  1.201467
  1357.869995  0.243993  0.679058  0.805274  0.931491  1.195490
  1361.390015  0.237527  0.675207  0.800868  0.926530  1.186774
  1364.920044  0.234295  0.671646  0.796857  0.922068  1.181608
  1368.439941  0.230859  0.668214  0.793012  0.917811  1.171308
  1371.969971  0.229614  0.665177  0.789602  0.914026  1.167548
  1375.500000  0.228815  0.662787  0.786908  0.911029  1.156821
  1379.020020  0.226649  0.660582  0.784234  0.907886  1.150113
  1382.550049  0.221638  0.658026  0.781239  0.904451  1.140450
  1386.079956  0.220924  0.654718  0.777571  0.900425  1.136380
  1389.609985  0.217781  0.650515  0.772860  0.895206  1.127324
  1393.140015  0.215642  0.645746  0.767204  0.888662  1.115704
  1396.670044  0.208141  0.639588  0.760215  0.880842  1.103962
  1400.199951  0.204784  0.632773  0.752332  0.871890  1.096809
  1403.729980  0.198490  0.624675  0.743032  0.861389  1.077314
  1407.260010  0.192153  0.615442  0.732352  0.849262  1.060774
  1410.790039  0.186202  0.604951  0.720392  0.835832  1.042323
  1414.319946  0.177608  0.593729  0.707513  0.821297  1.022858
  1417.859985  0.172362  0.581935  0.694025  0.806116  1.008518
  1421.390015  0.163343  0.570297  0.680581  0.790865  0.990499
  1424.920044  0.158810  0.558801  0.667294  0.775787  0.970585
  1428.459961  0.152219  0.548264  0.655111  0.761958  0.954367
  1431.989990  0.147862  0.538650  0.643955  0.749260  0.939711
  1435.530029  0.140288  0.530641  0.634689  0.738738  0.923367
  1439.069946  0.140246  0.523689  0.626759  0.729829  0.913622
  1442.599976  0.134490  0.518064  0.620354  0.722643  0.906923
  1446.140015  0.135806  0.513682  0.615352  0.717021  0.904955
  1449.680054  0.133405  0.510291  0.611493  0.712695  0.897493
  1453.219971  0.132071  0.507477  0.608277  0.709076  0.895593
  1456.760010  0.130932  0.505396  0.605958  0.706519  0.895952
  1460.300049  0.129602  0.503525  0.603974  0.704424  0.897693
  1463.839966  0.126671  0.502601  0.602964  0.703327  0.895607
  1467.380005  0.128769  0.501691  0.602105  0.702519  0.894957
  1470.920044  0.125931  0.501541  0.602025  0.702508  0.895310
  1474.459961  0.129480  0.501358  0.602021  0.702684  0.898211
  1478.010010  0.128489  0.501897  0.602745  0.703593  0.897256
  1481.550049  0.128168  0.502293  0.603331  0.704370  0.900274
  1485.089966  0.126639  0.502787  0.604067  0.705348  0.899731
  1488.640015  0.125867  0.503182  0.604658  0.706135  0.902845
  1492.180054  0.127877  0.503938  0.605684  0.707430  0.907258
  1495.729980  0.127377  0.504540  0.606588  0.708636  0.908733
  1499.270020  0.128154  0.505686  0.608018  0.710350  0.910814
  1502.819946  0.128151  0.506560  0.609190  0.711821  0.913026
  1506.369995  0.130159  0.507574  0.610545  0.713515  0.918286
  1509.910034  0.129312  0.508577  0.611860  0.715143  0.917677
  1513.459961  0.129650  0.509578  0.613122  0.716665  0.921019
  1517.010010  0.128112  0.510167  0.614032  0.717897  0.927064
  1520.560059  0.129168  0.510851  0.615018  0.719184  0.927098
  1524.109985  0.128400  0.511363  0.615784  0.720204  0.927758
  1527.660034  0.130123  0.511862  0.616475  0.721088  0.933579
  1531.209961  0.127066  0.511691  0.616534  0.721377  0.931733
  1534.760010  0.131163  0.511956  0.616829  0.721702  0.936757
  1538.319946  0.128617  0.511663  0.616701  0.721739  0.936138
  1541.869995  0.129667  0.511441  0.616507  0.721572  0.931917
  1545.420044  0.128538  0.510798  0.615946  0.721094  0.930965
  1548.979980  0.129685  0.509975  0.615173  0.720372  0.934153
  1552.530029  0.126888  0.509161  0.614306  0.719450  0.931500
  1556.089966  0.127984  0.508191  0.613309  0.718427  0.933968
  1559.640015  0.125173  0.507055  0.612142  0.717229  0.927220
  1563.199951  0.128610  0.506194  0.611253  0.716312  0.930010
  1566.750000  0.123485  0.505241  0.610279  0.715317  0.925673
  1570.310059  0.123603  0.504304  0.609338  0.714371  0.926402
  1573.869995  0.123195  0.503525  0.608507  0.713488  0.923805
  1577.430054  0.124209  0.503154  0.608078  0.713001  0.923364
  1580.989990  0.123514  0.502393  0.607322  0.712252  0.919344
  1584.550049  0.124795  0.502118  0.607032  0.711946  0.919952
  1588.109985  0.123617  0.501401  0.606386  0.711371  0.920427
  1591.670044  0.123959  0.501508  0.606519  0.711530  0.921320
  1595.229980  0.123004  0.500954  0.606056  0.711158  0.916715
  1598.790039  0.121066  0.500798  0.605907  0.711016  0.913735
  1602.349976  0.124940  0.500510  0.605565  0.710621  0.913222
  1605.920044  0.119362  0.500007  0.605117  0.710226  0.909072
  1609.479980  0.123728  0.499714  0.604709  0.709704  0.905640
  1613.040039  0.119812  0.498811  0.603663  0.708515  0.897745
  1616.609985  0.121811  0.497838  0.602372  0.706905  0.887581
  1620.170044  0.119810  0.496616  0.600762  0.704908  0.870692
  1623.739990  0.120123  0.494714  0.598305  0.701895  0.860597
  1627.310059  0.117865  0.492771  0.595927  0.699084  0.857984
  1630.869995  0.119202  0.490466  0.593278  0.696091  0.861446
  1634.439941  0.115642  0.488590  0.591221  0.693852  0.857466
  1638.010010  0.116396  0.486812  0.589494  0.692177  0.853417
  1641.579956  0.116706  0.485903  0.588595  0.691288  0.853155
  1645.150024  0.117638  0.485159  0.587898  0.690637  0.856293
  1648.709961  0.115359  0.484760  0.587461  0.690161  0.852338
  1652.290039  0.114476  0.484160  0.586759  0.689358  0.856173
  1655.859985  0.112854  0.482020  0.584382  0.686745  0.851285
  1659.430054  0.111750  0.477513  0.580003  0.682494  0.847708
  1663.000000  0.111616  0.469965  0.573987  0.678010  0.842533
  1666.569946  0.112215  0.460056  0.567315  0.674574  0.837998
  1670.140015  0.110348  0.448494  0.560475  0.672456  0.834654
  1673.719971  0.108437  0.438068  0.554527  0.670987  0.832170
  1677.290039  0.107976  0.430802  0.550127  0.669452  0.826459
  1680.869995  0.110585  0.427029  0.546915  0.666802  0.822332
  1684.439941  0.111419  0.425615  0.544273  0.662931  0.822589
  1688.020020  0.107652  0.425223  0.541186  0.657148  0.813587
  1691.589966  0.114343  0.424905  0.537560  0.650215  0.807434
  1695.170044  0.112671  0.425435  0.534226  0.643016  0.788658
  1698.750000  0.110156  0.426897  0.530944  0.634992  0.781101
  1702.329956  0.112970  0.429688  0.528720  0.627753  0.773060
  1705.910034  0.129061  0.430787  0.525882  0.620977  0.767443
  1709.489990  0.127554  0.429714  0.521746  0.613778  0.743512
  1713.069946  0.145221  0.426946  0.516036  0.605126  0.748509
  1716.650024  0.135983  0.424122  0.510318  0.596514  0.727471
  1720.229980  0.139850  0.419500  0.502815  0.586130  0.711896
