ENVI ASCII Plot File [Sun Apr 06 16:51:07 2025]
Column 1: Wavelength
Column 2: Min: ROI #54~~2##255,0,0
Column 3: Mean-StdDev: ROI #54~~21##0,200,0
Column 4: Mean: ROI #54~~0##0,0,0
Column 5: Mean+StdDev: ROI #54~~21##0,200,0
Column 6: Max: ROI #54~~2##255,0,0
   935.609985  0.252850  0.449713  0.513314  0.576916  0.671877
   939.059998  0.258487  0.452408  0.515915  0.579422  0.677886
   942.520020  0.250355  0.466803  0.541055  0.615306  0.716764
   945.979980  0.238749  0.476259  0.561706  0.647153  0.779633
   949.429993  0.237982  0.481753  0.574605  0.667457  0.820337
   952.890015  0.243739  0.488116  0.584599  0.681082  0.830209
   956.349976  0.238249  0.492836  0.591455  0.690075  0.841189
   959.809998  0.244459  0.496738  0.596478  0.696218  0.855171
   963.270020  0.247118  0.500313  0.600906  0.701499  0.859338
   966.729980  0.240587  0.503323  0.604730  0.706136  0.866323
   970.190002  0.244767  0.506718  0.608719  0.710721  0.867515
   973.650024  0.246937  0.509511  0.612100  0.714690  0.873393
   977.109985  0.249475  0.512571  0.615676  0.718780  0.878490
   980.580017  0.252750  0.515703  0.619292  0.722880  0.884790
   984.039978  0.251735  0.518648  0.622737  0.726825  0.891682
   987.510010  0.256627  0.521559  0.626092  0.730625  0.896165
   990.969971  0.255507  0.524647  0.629685  0.734722  0.901393
   994.429993  0.259698  0.527823  0.633304  0.738785  0.902909
   997.900024  0.260813  0.531068  0.636988  0.742909  0.910728
  1001.369995  0.262537  0.533997  0.640342  0.746688  0.914600
  1004.830017  0.262025  0.537005  0.643863  0.750721  0.923190
  1008.299988  0.266302  0.540149  0.647406  0.754663  0.927413
  1011.770020  0.266196  0.543397  0.651079  0.758761  0.934132
  1015.239990  0.270874  0.546388  0.654518  0.762648  0.936580
  1018.710022  0.272300  0.549279  0.657873  0.766466  0.943254
  1022.179993  0.273539  0.552331  0.661390  0.770449  0.949565
  1025.650024  0.274238  0.555435  0.664919  0.774404  0.954174
  1029.119995  0.277264  0.558417  0.668341  0.778265  0.960046
  1032.589966  0.277887  0.561393  0.671702  0.782011  0.963958
  1036.060059  0.280707  0.564278  0.674993  0.785708  0.967321
  1039.530029  0.282644  0.567205  0.678355  0.789505  0.973405
  1043.000000  0.284058  0.570109  0.681702  0.793294  0.979193
  1046.479980  0.284838  0.573099  0.685060  0.797021  0.984337
  1049.949951  0.287069  0.575938  0.688290  0.800642  0.988866
  1053.430054  0.290274  0.578682  0.691435  0.804189  0.992269
  1056.900024  0.291157  0.581450  0.694608  0.807766  0.997021
  1060.380005  0.292763  0.584159  0.697750  0.811342  1.002284
  1063.849976  0.294694  0.586850  0.700859  0.814868  1.007853
  1067.329956  0.296834  0.589523  0.703908  0.818293  1.012134
  1070.810059  0.297987  0.592122  0.706882  0.821642  1.015973
  1074.290039  0.298219  0.594699  0.709850  0.825000  1.020393
  1077.760010  0.296687  0.597213  0.712777  0.828341  1.026706
  1081.239990  0.299596  0.599785  0.715705  0.831626  1.030836
  1084.719971  0.303420  0.602261  0.718524  0.834787  1.034547
  1088.199951  0.306052  0.604541  0.721171  0.837801  1.038947
  1091.680054  0.307585  0.606809  0.723804  0.840799  1.040438
  1095.170044  0.307605  0.609039  0.726369  0.843698  1.045421
  1098.650024  0.309273  0.611165  0.728774  0.846382  1.050532
  1102.130005  0.310020  0.612948  0.730869  0.848790  1.053756
  1105.609985  0.311563  0.614634  0.732817  0.850999  1.056550
  1109.099976  0.311784  0.616321  0.734769  0.853216  1.060073
  1112.579956  0.314170  0.617985  0.736707  0.855429  1.061991
  1116.069946  0.315024  0.619518  0.738510  0.857502  1.066523
  1119.550049  0.315052  0.621034  0.740263  0.859491  1.069576
  1123.040039  0.314483  0.622267  0.741751  0.861236  1.069991
  1126.520020  0.316384  0.623276  0.743004  0.862732  1.069937
  1130.010010  0.316447  0.623906  0.743855  0.863803  1.072166
  1133.500000  0.316500  0.624230  0.744403  0.864576  1.073452
  1136.989990  0.316399  0.624169  0.744647  0.865124  1.072574
  1140.469971  0.314394  0.624309  0.744974  0.865639  1.074212
  1143.959961  0.314167  0.624586  0.745411  0.866236  1.074796
  1147.449951  0.316900  0.625036  0.745966  0.866897  1.072837
  1150.939941  0.317714  0.625521  0.746452  0.867384  1.076069
  1154.430054  0.317018  0.625926  0.746715  0.867504  1.076236
  1157.930054  0.318808  0.625663  0.746348  0.867034  1.076627
  1161.420044  0.317365  0.625246  0.745731  0.866217  1.077538
  1164.910034  0.318137  0.624370  0.744794  0.865218  1.076649
  1168.400024  0.317063  0.623680  0.743969  0.864257  1.077158
  1171.900024  0.316891  0.623105  0.743324  0.863543  1.076043
  1175.390015  0.317215  0.622554  0.742740  0.862927  1.076748
  1178.890015  0.317392  0.621914  0.742030  0.862146  1.072828
  1182.380005  0.315219  0.621512  0.741590  0.861668  1.074233
  1185.880005  0.316952  0.621506  0.741628  0.861749  1.072851
  1189.369995  0.313562  0.621926  0.742233  0.862539  1.073646
  1192.869995  0.317874  0.622911  0.743437  0.863962  1.073738
  1196.369995  0.316791  0.624241  0.745013  0.865785  1.077814
  1199.869995  0.316624  0.625562  0.746649  0.867736  1.082255
  1203.369995  0.317551  0.626991  0.748388  0.869786  1.086469
  1206.869995  0.318875  0.628498  0.750161  0.871825  1.085981
  1210.369995  0.319550  0.630220  0.752194  0.874168  1.088660
  1213.869995  0.320743  0.632382  0.754658  0.876934  1.096384
  1217.369995  0.322703  0.634937  0.757578  0.880219  1.102117
  1220.869995  0.325877  0.637609  0.760688  0.883766  1.105734
  1224.369995  0.326199  0.640429  0.763949  0.887469  1.112006
  1227.869995  0.327829  0.643246  0.767188  0.891130  1.118138
  1231.380005  0.330595  0.645989  0.770354  0.894718  1.123610
  1234.880005  0.332906  0.648353  0.773099  0.897844  1.126746
  1238.390015  0.332051  0.650652  0.775734  0.900817  1.132508
  1241.890015  0.336683  0.652694  0.778134  0.903575  1.136314
  1245.400024  0.337024  0.654610  0.780344  0.906079  1.135159
  1248.900024  0.334953  0.656335  0.782459  0.908582  1.141470
  1252.410034  0.338339  0.658141  0.784524  0.910908  1.144678
  1255.920044  0.340159  0.659665  0.786315  0.912965  1.150341
  1259.420044  0.342372  0.661102  0.787995  0.914887  1.155387
  1262.930054  0.340567  0.662278  0.789497  0.916716  1.158586
  1266.439941  0.343441  0.663772  0.791172  0.918572  1.158003
  1269.949951  0.341884  0.664805  0.792549  0.920292  1.164749
  1273.459961  0.344688  0.666163  0.794089  0.922016  1.163950
  1276.969971  0.344929  0.667241  0.795495  0.923748  1.170262
  1280.479980  0.347856  0.668693  0.797142  0.925592  1.169331
  1283.989990  0.346433  0.669707  0.798507  0.927308  1.175382
  1287.510010  0.348690  0.671127  0.800069  0.929011  1.173330
  1291.020020  0.349330  0.672100  0.801430  0.930760  1.181565
  1294.530029  0.352496  0.673394  0.802837  0.932279  1.182441
  1298.050049  0.348150  0.674173  0.803900  0.933627  1.187951
  1301.560059  0.352421  0.675280  0.805175  0.935071  1.188277
  1305.079956  0.351625  0.675985  0.806086  0.936188  1.189189
  1308.589966  0.350628  0.676656  0.806832  0.937008  1.190656
  1312.109985  0.351602  0.676873  0.807249  0.937625  1.193334
  1315.619995  0.352761  0.677059  0.807552  0.938044  1.191926
  1319.140015  0.350372  0.676627  0.807278  0.937928  1.192525
  1322.660034  0.351206  0.676315  0.806891  0.937468  1.192535
  1326.180054  0.350564  0.675230  0.805821  0.936411  1.189891
  1329.699951  0.349463  0.673805  0.804261  0.934717  1.189847
  1333.219971  0.348410  0.671339  0.801700  0.932060  1.185640
  1336.739990  0.344365  0.668712  0.798828  0.928945  1.181605
  1340.260010  0.343466  0.665693  0.795509  0.925324  1.170344
  1343.780029  0.341244  0.662217  0.791628  0.921039  1.168437
  1347.300049  0.339380  0.658139  0.787153  0.916167  1.161085
  1350.819946  0.333708  0.653941  0.782537  0.911133  1.156652
  1354.349976  0.333027  0.649941  0.777979  0.906017  1.146357
  1357.869995  0.327737  0.646263  0.773840  0.901418  1.137143
  1361.390015  0.327943  0.642780  0.769912  0.897043  1.129675
  1364.920044  0.322069  0.639453  0.766319  0.893184  1.126683
  1368.439941  0.321971  0.636313  0.762928  0.889543  1.121070
  1371.969971  0.319636  0.633641  0.760086  0.886531  1.119785
  1375.500000  0.319071  0.631129  0.757442  0.883755  1.112652
  1379.020020  0.313141  0.628820  0.754775  0.880730  1.108661
  1382.550049  0.314270  0.626358  0.751923  0.877488  1.100523
  1386.079956  0.310307  0.623061  0.748537  0.874013  1.099761
  1389.609985  0.308669  0.619090  0.744241  0.869392  1.087248
  1393.140015  0.304626  0.614733  0.739273  0.863813  1.083151
  1396.670044  0.305651  0.609430  0.733285  0.857140  1.070433
  1400.199951  0.300089  0.603479  0.726586  0.849692  1.060429
  1403.729980  0.296299  0.596078  0.718223  0.840368  1.046109
  1407.260010  0.290467  0.587429  0.708474  0.829520  1.030382
  1410.790039  0.285637  0.577831  0.697594  0.817357  1.012264
  1414.319946  0.275633  0.567150  0.685642  0.804135  0.998564
  1417.859985  0.269142  0.556228  0.673104  0.789979  0.977590
  1421.390015  0.257671  0.545236  0.660506  0.775775  0.955970
  1424.920044  0.253168  0.534375  0.648128  0.761881  0.937290
  1428.459961  0.242794  0.524850  0.637128  0.749406  0.920680
  1431.989990  0.240311  0.516056  0.627074  0.738092  0.904317
  1435.530029  0.233771  0.508647  0.618549  0.728451  0.894687
  1439.069946  0.229322  0.502605  0.611626  0.720648  0.882393
  1442.599976  0.222448  0.497733  0.606041  0.714350  0.871248
  1446.140015  0.220994  0.493977  0.601787  0.709596  0.868101
  1449.680054  0.216156  0.491034  0.598441  0.705848  0.862700
  1453.219971  0.217989  0.488681  0.595866  0.703051  0.862270
  1456.760010  0.214150  0.487212  0.594142  0.701073  0.860553
  1460.300049  0.213715  0.485666  0.592651  0.699636  0.861665
  1463.839966  0.211491  0.484953  0.591850  0.698747  0.856845
  1467.380005  0.214668  0.484525  0.591485  0.698445  0.858355
  1470.920044  0.213524  0.484530  0.591602  0.698674  0.854032
  1474.459961  0.212897  0.484296  0.591571  0.698847  0.859270
  1478.010010  0.212593  0.484886  0.592302  0.699717  0.859071
  1481.550049  0.214061  0.485214  0.592874  0.700533  0.864982
  1485.089966  0.212754  0.485864  0.593641  0.701417  0.863038
  1488.640015  0.210903  0.485964  0.593976  0.701987  0.866605
  1492.180054  0.212958  0.486755  0.594970  0.703185  0.868270
  1495.729980  0.209649  0.487262  0.595754  0.704246  0.873446
  1499.270020  0.211633  0.488450  0.597152  0.705855  0.872962
  1502.819946  0.211302  0.489344  0.598401  0.707458  0.872849
  1506.369995  0.214685  0.490369  0.599695  0.709022  0.875397
  1509.910034  0.212132  0.491340  0.601023  0.710705  0.881316
  1513.459961  0.213346  0.492346  0.602325  0.712303  0.884043
  1517.010010  0.212817  0.493154  0.603457  0.713760  0.887035
  1520.560059  0.212990  0.493994  0.604611  0.715229  0.888015
  1524.109985  0.212770  0.494433  0.605288  0.716142  0.888893
  1527.660034  0.215369  0.494909  0.605955  0.717001  0.891973
  1531.209961  0.211220  0.494943  0.606218  0.717494  0.886548
  1534.760010  0.214379  0.495140  0.606529  0.717917  0.891076
  1538.319946  0.210675  0.494840  0.606261  0.717682  0.891434
  1541.869995  0.211674  0.494556  0.606039  0.717522  0.893117
  1545.420044  0.209726  0.493986  0.605550  0.717114  0.891891
  1548.979980  0.208752  0.493324  0.604936  0.716547  0.892778
  1552.530029  0.208617  0.492426  0.604058  0.715689  0.887390
  1556.089966  0.208560  0.491512  0.603136  0.714760  0.889825
  1559.640015  0.207504  0.490564  0.602193  0.713822  0.884357
  1563.199951  0.205678  0.489551  0.601132  0.712714  0.886777
  1566.750000  0.205165  0.488451  0.600001  0.711551  0.885025
  1570.310059  0.202366  0.487515  0.599071  0.710626  0.884182
  1573.869995  0.204829  0.486703  0.598310  0.709917  0.882989
  1577.430054  0.200284  0.486218  0.597838  0.709458  0.884359
  1580.989990  0.199769  0.485548  0.597184  0.708821  0.879794
  1584.550049  0.199796  0.485087  0.596767  0.708448  0.881049
  1588.109985  0.200822  0.484336  0.596153  0.707970  0.877930
  1591.670044  0.197837  0.484164  0.595996  0.707828  0.880680
  1595.229980  0.198006  0.483685  0.595532  0.707379  0.879283
  1598.790039  0.197377  0.483347  0.595302  0.707257  0.875045
  1602.349976  0.197867  0.482904  0.594891  0.706879  0.878236
  1605.920044  0.194477  0.482290  0.594363  0.706436  0.876142
  1609.479980  0.193056  0.481733  0.593814  0.705896  0.875938
  1613.040039  0.194345  0.480682  0.592780  0.704879  0.876117
  1616.609985  0.194472  0.479392  0.591419  0.703445  0.873634
  1620.170044  0.192466  0.477943  0.589925  0.701908  0.872325
  1623.739990  0.191026  0.476139  0.588119  0.700100  0.870818
  1627.310059  0.190238  0.474433  0.586339  0.698244  0.862589
  1630.869995  0.188694  0.472397  0.584287  0.696176  0.860871
  1634.439941  0.186219  0.471070  0.582886  0.694701  0.857832
  1638.010010  0.187935  0.469726  0.581554  0.693382  0.859379
  1641.579956  0.187040  0.468924  0.580772  0.692620  0.853409
  1645.150024  0.186746  0.468153  0.580014  0.691875  0.854720
  1648.709961  0.184877  0.467283  0.579079  0.690875  0.849592
  1652.290039  0.184138  0.466236  0.577976  0.689717  0.854064
  1655.859985  0.181569  0.464287  0.575939  0.687591  0.844857
  1659.430054  0.180530  0.461402  0.572937  0.684471  0.841984
  1663.000000  0.179600  0.457695  0.569159  0.680624  0.833428
  1666.569946  0.177181  0.453251  0.564712  0.676172  0.826996
  1670.140015  0.176537  0.448848  0.560123  0.671399  0.814916
  1673.719971  0.170145  0.444581  0.555730  0.666878  0.806873
  1677.290039  0.169769  0.441135  0.552015  0.662894  0.800471
  1680.869995  0.169222  0.438296  0.548725  0.659154  0.797840
  1684.439941  0.167126  0.435777  0.545477  0.655177  0.790142
  1688.020020  0.164987  0.432654  0.541247  0.649839  0.784030
  1691.589966  0.171131  0.428805  0.535895  0.642986  0.774750
  1695.170044  0.163735  0.425162  0.530492  0.635822  0.768332
  1698.750000  0.170830  0.421368  0.524608  0.627847  0.758099
  1702.329956  0.165976  0.418212  0.519187  0.620162  0.750417
  1705.910034  0.173237  0.414875  0.513323  0.611770  0.741341
  1709.489990  0.165138  0.411489  0.507457  0.603425  0.722813
  1713.069946  0.191832  0.406977  0.500454  0.593930  0.712593
  1716.650024  0.181768  0.402989  0.493299  0.583610  0.703719
  1720.229980  0.169293  0.398476  0.485553  0.572630  0.682749
