ENVI ASCII Plot File [Sun Apr 06 16:18:18 2025]
Column 1: Wavelength
Column 2: Min: ROI #21~~2##255,0,0
Column 3: Mean-StdDev: ROI #21~~21##0,200,0
Column 4: Mean: ROI #21~~0##0,0,0
Column 5: Mean+StdDev: ROI #21~~21##0,200,0
Column 6: Max: ROI #21~~2##255,0,0
   935.609985  0.359870  0.553939  0.616335  0.678731  0.851966
   939.059998  0.358524  0.557404  0.619594  0.681783  0.851023
   942.520020  0.350040  0.583460  0.653646  0.723831  0.909970
   945.979980  0.345633  0.601994  0.679738  0.757483  0.949773
   949.429993  0.343652  0.614101  0.697113  0.780125  0.971994
   952.890015  0.350630  0.622937  0.708472  0.794008  1.013007
   956.349976  0.351403  0.629116  0.716057  0.802997  1.007073
   959.809998  0.353007  0.633365  0.721146  0.808928  1.019214
   963.270020  0.349092  0.637322  0.725771  0.814221  1.021888
   966.729980  0.351615  0.640581  0.729605  0.818629  1.031776
   970.190002  0.352399  0.644098  0.733598  0.823099  1.034740
   973.650024  0.353510  0.646944  0.736833  0.826722  1.041257
   977.109985  0.354922  0.649947  0.740168  0.830389  1.045832
   980.580017  0.358917  0.652984  0.743588  0.834191  1.050401
   984.039978  0.362240  0.656021  0.746952  0.837883  1.057236
   987.510010  0.365498  0.658859  0.750109  0.841359  1.059504
   990.969971  0.361685  0.661869  0.753452  0.845035  1.063441
   994.429993  0.367882  0.664808  0.756742  0.848676  1.069348
   997.900024  0.369939  0.667911  0.760217  0.852524  1.074132
  1001.369995  0.371152  0.670857  0.763477  0.856097  1.077604
  1004.830017  0.373529  0.673830  0.766762  0.859694  1.083008
  1008.299988  0.376389  0.676880  0.770159  0.863438  1.087723
  1011.770020  0.377729  0.680023  0.773615  0.867207  1.090075
  1015.239990  0.380300  0.682956  0.776900  0.870843  1.094149
  1018.710022  0.383729  0.685874  0.780120  0.874367  1.099890
  1022.179993  0.384953  0.688925  0.783519  0.878113  1.101820
  1025.650024  0.386377  0.691958  0.786877  0.881795  1.108660
  1029.119995  0.385490  0.694880  0.790161  0.885442  1.110888
  1032.589966  0.390918  0.697832  0.793413  0.888995  1.116578
  1036.060059  0.393119  0.700640  0.796572  0.892504  1.118555
  1039.530029  0.396570  0.703457  0.799723  0.895989  1.125127
  1043.000000  0.398933  0.706321  0.802885  0.899449  1.128846
  1046.479980  0.399641  0.709320  0.806172  0.903024  1.132865
  1049.949951  0.401551  0.712086  0.809235  0.906383  1.137868
  1053.430054  0.405153  0.714628  0.812129  0.909630  1.142222
  1056.900024  0.406903  0.717291  0.815101  0.912911  1.146191
  1060.380005  0.408429  0.719939  0.818037  0.916135  1.151610
  1063.849976  0.410379  0.722531  0.820919  0.919306  1.154407
  1067.329956  0.412866  0.725067  0.823731  0.922395  1.158413
  1070.810059  0.413886  0.727583  0.826541  0.925499  1.162384
  1074.290039  0.415502  0.730118  0.829363  0.928608  1.166326
  1077.760010  0.416447  0.732467  0.832001  0.931535  1.169455
  1081.239990  0.415527  0.734784  0.834568  0.934352  1.174318
  1084.719971  0.418603  0.737053  0.837071  0.937088  1.177326
  1088.199951  0.421468  0.739123  0.839380  0.939637  1.180993
  1091.680054  0.422626  0.741096  0.841591  0.942087  1.183887
  1095.170044  0.424332  0.743074  0.843789  0.944503  1.188283
  1098.650024  0.425826  0.744883  0.845810  0.946737  1.189876
  1102.130005  0.426152  0.746396  0.847506  0.948616  1.190129
  1105.609985  0.427272  0.747723  0.848942  0.950161  1.191904
  1109.099976  0.427732  0.748955  0.850272  0.951589  1.193611
  1112.579956  0.427850  0.750099  0.851531  0.952964  1.192092
  1116.069946  0.429701  0.751162  0.852661  0.954159  1.189672
  1119.550049  0.428747  0.752163  0.853660  0.955157  1.185372
  1123.040039  0.430566  0.752896  0.854309  0.955722  1.181958
  1126.520020  0.430221  0.753305  0.854492  0.955680  1.173152
  1130.010010  0.427599  0.753075  0.853961  0.954846  1.155390
  1133.500000  0.424197  0.752153  0.852651  0.953149  1.131951
  1136.989990  0.424572  0.750648  0.850860  0.951073  1.104260
  1140.469971  0.424171  0.749180  0.849355  0.949530  1.075728
  1143.959961  0.421712  0.748139  0.848506  0.948873  1.065375
  1147.449951  0.419545  0.748067  0.848578  0.949089  1.070874
  1150.939941  0.420164  0.748603  0.849236  0.949869  1.094515
  1154.430054  0.421146  0.749157  0.849840  0.950522  1.122026
  1157.930054  0.423413  0.748791  0.849640  0.950489  1.143545
  1161.420044  0.422252  0.747794  0.848665  0.949537  1.154997
  1164.910034  0.420373  0.746222  0.847127  0.948032  1.162091
  1168.400024  0.419673  0.744650  0.845510  0.946371  1.164562
  1171.900024  0.419552  0.743082  0.843824  0.944565  1.166351
  1175.390015  0.417815  0.741566  0.842185  0.942803  1.165579
  1178.890015  0.418042  0.740177  0.840679  0.941180  1.163429
  1182.380005  0.417735  0.739216  0.839561  0.939906  1.161248
  1185.880005  0.418225  0.738603  0.838907  0.939212  1.155770
  1189.369995  0.417157  0.738768  0.839070  0.939372  1.153670
  1192.869995  0.417115  0.739471  0.839853  0.940235  1.150080
  1196.369995  0.418106  0.740634  0.841098  0.941562  1.147847
  1199.869995  0.418263  0.741918  0.842523  0.943129  1.146130
  1203.369995  0.420031  0.743408  0.844160  0.944912  1.145749
  1206.869995  0.419855  0.744915  0.845848  0.946781  1.145059
  1210.369995  0.420563  0.746682  0.847892  0.949102  1.149785
  1213.869995  0.419486  0.748714  0.850289  0.951865  1.156946
  1217.369995  0.424692  0.751123  0.853042  0.954960  1.167324
  1220.869995  0.423974  0.753561  0.856005  0.958448  1.173817
  1224.369995  0.429043  0.756107  0.858921  0.961734  1.184844
  1227.869995  0.428648  0.758554  0.861834  0.965113  1.191851
  1231.380005  0.433166  0.760929  0.864558  0.968187  1.202597
  1234.880005  0.431882  0.763101  0.867036  0.970971  1.208425
  1238.390015  0.433724  0.765117  0.869401  0.973685  1.214667
  1241.890015  0.433221  0.766999  0.871565  0.976132  1.215395
  1245.400024  0.436240  0.768667  0.873553  0.978440  1.220825
  1248.900024  0.436988  0.770277  0.875435  0.980594  1.226318
  1252.410034  0.439819  0.771629  0.876974  0.982319  1.230380
  1255.920044  0.438793  0.772948  0.878520  0.984092  1.233275
  1259.420044  0.440365  0.774010  0.879828  0.985647  1.233862
  1262.930054  0.441986  0.775012  0.881046  0.987081  1.234020
  1266.439941  0.443541  0.776180  0.882306  0.988432  1.241118
  1269.949951  0.442355  0.777107  0.883432  0.989758  1.241140
  1273.459961  0.442025  0.778088  0.884606  0.991124  1.244631
  1276.969971  0.443830  0.779060  0.885812  0.992564  1.247247
  1280.479980  0.444509  0.780213  0.887131  0.994048  1.249030
  1283.989990  0.444338  0.781253  0.888429  0.995604  1.252439
  1287.510010  0.446516  0.782431  0.889785  0.997138  1.250002
  1291.020020  0.445925  0.783362  0.890919  0.998477  1.253876
  1294.530029  0.444573  0.784296  0.891924  0.999552  1.253966
  1298.050049  0.447072  0.784837  0.892650  1.000464  1.255705
  1301.560059  0.445130  0.785467  0.893389  1.001310  1.254468
  1305.079956  0.447294  0.785876  0.893900  1.001924  1.256019
  1308.589966  0.446432  0.786176  0.894291  1.002405  1.254599
  1312.109985  0.448084  0.785983  0.894216  1.002450  1.256099
  1315.619995  0.445194  0.785642  0.893897  1.002153  1.253008
  1319.140015  0.445334  0.784908  0.893155  1.001402  1.257274
  1322.660034  0.441297  0.783931  0.892054  1.000177  1.250872
  1326.180054  0.439467  0.782101  0.890150  0.998200  1.248704
  1329.699951  0.439019  0.779887  0.887753  0.995618  1.244000
  1333.219971  0.438388  0.776664  0.884332  0.992001  1.238934
  1336.739990  0.433185  0.773123  0.880413  0.987703  1.231520
  1340.260010  0.430817  0.769063  0.876038  0.983012  1.226943
  1343.780029  0.426397  0.764738  0.871219  0.977701  1.217199
  1347.300049  0.423254  0.759786  0.865846  0.971906  1.209487
  1350.819946  0.420812  0.754866  0.860489  0.966112  1.201914
  1354.349976  0.416117  0.750146  0.855299  0.960452  1.195656
  1357.869995  0.410973  0.745743  0.850407  0.955072  1.192357
  1361.390015  0.409558  0.741606  0.845796  0.949987  1.184039
  1364.920044  0.403035  0.737546  0.841409  0.945271  1.175548
  1368.439941  0.402125  0.733816  0.837352  0.940888  1.167363
  1371.969971  0.398494  0.730539  0.833726  0.936912  1.160956
  1375.500000  0.396593  0.727749  0.830744  0.933739  1.152824
  1379.020020  0.391987  0.725354  0.827923  0.930492  1.146125
  1382.550049  0.392084  0.722422  0.824608  0.926793  1.140501
  1386.079956  0.389151  0.718828  0.820755  0.922682  1.135469
  1389.609985  0.382352  0.714251  0.815736  0.917221  1.125460
  1393.140015  0.379097  0.708801  0.809490  0.910178  1.117352
  1396.670044  0.374392  0.702022  0.802053  0.902084  1.105975
  1400.199951  0.372605  0.694590  0.793717  0.892844  1.095811
  1403.729980  0.363062  0.685801  0.783924  0.882046  1.079065
  1407.260010  0.358709  0.675874  0.772835  0.869797  1.064438
  1410.790039  0.348878  0.664943  0.760674  0.856405  1.043236
  1414.319946  0.343821  0.653214  0.747621  0.842028  1.029487
  1417.859985  0.334151  0.640855  0.733944  0.827034  1.011045
  1421.390015  0.326977  0.628740  0.720397  0.812053  1.000067
  1424.920044  0.318370  0.616790  0.707115  0.797440  0.978939
  1428.459961  0.313667  0.605999  0.694999  0.783998  0.965226
  1431.989990  0.305296  0.596309  0.684108  0.771907  0.948285
  1435.530029  0.300528  0.588150  0.674980  0.761809  0.937961
  1439.069946  0.294272  0.581284  0.667354  0.753424  0.930554
  1442.599976  0.292131  0.575636  0.661096  0.746556  0.922032
  1446.140015  0.288361  0.571112  0.656115  0.741118  0.916063
  1449.680054  0.285930  0.567526  0.652140  0.736753  0.912106
  1453.219971  0.283478  0.564775  0.649162  0.733549  0.910250
  1456.760010  0.282808  0.562728  0.646899  0.731070  0.909838
  1460.300049  0.279880  0.560820  0.644879  0.728938  0.906516
  1463.839966  0.280000  0.559709  0.643727  0.727745  0.906436
  1467.380005  0.278049  0.558835  0.642850  0.726866  0.907631
  1470.920044  0.277595  0.558584  0.642733  0.726882  0.904174
  1474.459961  0.276269  0.558456  0.642740  0.727025  0.907066
  1478.010010  0.279328  0.558978  0.643393  0.727808  0.910656
  1481.550049  0.275942  0.559419  0.643987  0.728556  0.915581
  1485.089966  0.277428  0.559982  0.644771  0.729560  0.912398
  1488.640015  0.279286  0.560190  0.645157  0.730124  0.914618
  1492.180054  0.276445  0.560920  0.646030  0.731140  0.916279
  1495.729980  0.278004  0.561590  0.646967  0.732344  0.923067
  1499.270020  0.277860  0.562698  0.648316  0.733934  0.920247
  1502.819946  0.278833  0.563647  0.649514  0.735382  0.928389
  1506.369995  0.278471  0.564652  0.650797  0.736942  0.930055
  1509.910034  0.281028  0.565678  0.652030  0.738382  0.933147
  1513.459961  0.276627  0.566572  0.653178  0.739785  0.930962
  1517.010010  0.278684  0.567173  0.654080  0.740988  0.937969
  1520.560059  0.280344  0.568063  0.655184  0.742305  0.935973
  1524.109985  0.278221  0.568572  0.655908  0.743245  0.944305
  1527.660034  0.279455  0.569059  0.656542  0.744026  0.941283
  1531.209961  0.277213  0.568968  0.656727  0.744486  0.941793
  1534.760010  0.275280  0.569159  0.656980  0.744801  0.945206
  1538.319946  0.279113  0.568897  0.656851  0.744804  0.945976
  1541.869995  0.277964  0.568666  0.656596  0.744526  0.945247
  1545.420044  0.276507  0.567862  0.655895  0.743927  0.943609
  1548.979980  0.274679  0.567244  0.655193  0.743141  0.942920
  1552.530029  0.274726  0.566286  0.654274  0.742261  0.941659
  1556.089966  0.270713  0.565434  0.653403  0.741372  0.938369
  1559.640015  0.273023  0.564223  0.652255  0.740288  0.940713
  1563.199951  0.267759  0.563383  0.651356  0.739328  0.938431
  1566.750000  0.267552  0.562363  0.650343  0.738323  0.940142
  1570.310059  0.266800  0.561455  0.649401  0.737348  0.938055
  1573.869995  0.270664  0.560443  0.648407  0.736370  0.934018
  1577.430054  0.265374  0.560137  0.648002  0.735866  0.932235
  1580.989990  0.263751  0.559257  0.647185  0.735114  0.929897
  1584.550049  0.262761  0.558752  0.646641  0.734530  0.928915
  1588.109985  0.263086  0.557993  0.645947  0.733901  0.926039
  1591.670044  0.263400  0.557943  0.645882  0.733821  0.928671
  1595.229980  0.262100  0.557414  0.645419  0.733424  0.924988
  1598.790039  0.261810  0.557124  0.645105  0.733086  0.926032
  1602.349976  0.259790  0.556728  0.644692  0.732655  0.922550
  1605.920044  0.260402  0.556094  0.644097  0.732099  0.918218
  1609.479980  0.259727  0.555442  0.643383  0.731325  0.911994
  1613.040039  0.256001  0.554498  0.642337  0.730176  0.908231
  1616.609985  0.254609  0.553218  0.640809  0.728400  0.896517
  1620.170044  0.253841  0.551745  0.639039  0.726333  0.881553
  1623.739990  0.248134  0.549515  0.636427  0.723340  0.859492
  1627.310059  0.246979  0.547046  0.633765  0.720484  0.833233
  1630.869995  0.239911  0.544346  0.630949  0.717553  0.832486
  1634.439941  0.242707  0.541883  0.628584  0.715285  0.826677
  1638.010010  0.235132  0.539632  0.626504  0.713376  0.829283
  1641.579956  0.237159  0.538351  0.625371  0.712390  0.828069
  1645.150024  0.230648  0.537409  0.624419  0.711429  0.828838
  1648.709961  0.231952  0.536785  0.623709  0.710633  0.825319
  1652.290039  0.229140  0.535990  0.622745  0.709501  0.824909
  1655.859985  0.231988  0.533271  0.619999  0.706728  0.820532
  1659.430054  0.226815  0.527711  0.615242  0.702774  0.819106
  1663.000000  0.223003  0.518418  0.608893  0.699368  0.812819
  1666.569946  0.212351  0.506314  0.601642  0.696970  0.806399
  1670.140015  0.196096  0.492402  0.594297  0.696193  0.803120
  1673.719971  0.187006  0.480170  0.587952  0.695734  0.797796
  1677.290039  0.175972  0.471708  0.583241  0.694773  0.793961
  1680.869995  0.172508  0.467711  0.580164  0.692617  0.789733
  1684.439941  0.171981  0.466427  0.577539  0.688651  0.788176
  1688.020020  0.173381  0.466361  0.574548  0.682735  0.781502
  1691.589966  0.176011  0.466325  0.570896  0.675467  0.775143
  1695.170044  0.175896  0.467053  0.567386  0.667719  0.759152
  1698.750000  0.190279  0.469446  0.564142  0.658839  0.754687
  1702.329956  0.196141  0.472797  0.561714  0.650631  0.754356
  1705.910034  0.203701  0.474663  0.558739  0.642814  0.745104
  1709.489990  0.205810  0.474124  0.554700  0.635276  0.729626
  1713.069946  0.201332  0.471558  0.549083  0.626608  0.725827
  1716.650024  0.210323  0.468132  0.542844  0.617555  0.703572
  1720.229980  0.213751  0.462951  0.535288  0.607625  0.702704
