ENVI ASCII Plot File [Sun Apr 06 16:30:34 2025]
Column 1: Wavelength
Column 2: Min: ROI #35~~2##255,0,0
Column 3: Mean-StdDev: ROI #35~~21##0,200,0
Column 4: Mean: ROI #35~~0##0,0,0
Column 5: Mean+StdDev: ROI #35~~21##0,200,0
Column 6: Max: ROI #35~~2##255,0,0
   935.609985  0.316938  0.484577  0.544592  0.604606  0.740190
   939.059998  0.322690  0.487963  0.547669  0.607376  0.738169
   942.520020  0.327471  0.511462  0.578856  0.646251  0.825800
   945.979980  0.312897  0.527745  0.602795  0.677846  0.858156
   949.429993  0.315820  0.538928  0.619419  0.699909  0.899755
   952.890015  0.318299  0.547627  0.630723  0.713819  0.922653
   956.349976  0.326542  0.553831  0.638495  0.723159  0.941337
   959.809998  0.332040  0.558320  0.643772  0.729225  0.951001
   963.270020  0.337778  0.562154  0.648346  0.734539  0.961899
   966.729980  0.341198  0.565427  0.652206  0.738986  0.970125
   970.190002  0.344045  0.568993  0.656265  0.743537  0.973690
   973.650024  0.345285  0.571843  0.659527  0.747210  0.977193
   977.109985  0.348051  0.574696  0.662818  0.750939  0.983095
   980.580017  0.352037  0.577719  0.666171  0.754623  0.990174
   984.039978  0.355873  0.580667  0.669573  0.758478  0.994197
   987.510010  0.355552  0.583450  0.672687  0.761923  0.999947
   990.969971  0.361192  0.586507  0.676066  0.765625  1.004941
   994.429993  0.360318  0.589421  0.679386  0.769351  1.007115
   997.900024  0.363733  0.592599  0.682880  0.773160  1.013557
  1001.369995  0.367075  0.595431  0.686168  0.776905  1.018304
  1004.830017  0.370306  0.598485  0.689548  0.780612  1.022222
  1008.299988  0.372768  0.601456  0.692931  0.784406  1.025642
  1011.770020  0.374918  0.604645  0.696479  0.788312  1.031969
  1015.239990  0.377435  0.607581  0.699783  0.791985  1.032327
  1018.710022  0.379387  0.610534  0.703049  0.795564  1.038562
  1022.179993  0.383397  0.613543  0.706435  0.799327  1.043735
  1025.650024  0.385356  0.616603  0.709858  0.803113  1.049070
  1029.119995  0.388882  0.619463  0.713140  0.806817  1.052656
  1032.589966  0.388788  0.622485  0.716495  0.810504  1.056796
  1036.060059  0.391138  0.625355  0.719698  0.814041  1.060822
  1039.530029  0.393710  0.628199  0.722928  0.817656  1.066653
  1043.000000  0.395135  0.631104  0.726201  0.821297  1.071561
  1046.479980  0.395372  0.634082  0.729488  0.824894  1.073905
  1049.949951  0.397778  0.636838  0.732589  0.828339  1.078382
  1053.430054  0.400016  0.639513  0.735589  0.831665  1.083308
  1056.900024  0.402193  0.642250  0.738658  0.835065  1.087991
  1060.380005  0.403317  0.644901  0.741648  0.838395  1.091843
  1063.849976  0.406153  0.647524  0.744645  0.841766  1.095905
  1067.329956  0.408313  0.650125  0.747575  0.845025  1.099216
  1070.810059  0.408209  0.652649  0.750393  0.848136  1.102980
  1074.290039  0.411577  0.655174  0.753238  0.851303  1.106374
  1077.760010  0.413910  0.657593  0.755945  0.854296  1.108750
  1081.239990  0.413892  0.659979  0.758640  0.857302  1.112509
  1084.719971  0.416422  0.662277  0.761242  0.860208  1.118561
  1088.199951  0.416713  0.664353  0.763613  0.862873  1.123157
  1091.680054  0.417385  0.666250  0.765801  0.865351  1.125920
  1095.170044  0.422649  0.668226  0.768016  0.867806  1.129283
  1098.650024  0.422598  0.670082  0.770084  0.870086  1.131303
  1102.130005  0.421423  0.671506  0.771731  0.871956  1.132416
  1105.609985  0.423963  0.672724  0.773138  0.873551  1.134288
  1109.099976  0.423933  0.673857  0.774403  0.874949  1.134819
  1112.579956  0.423823  0.674915  0.775638  0.876361  1.134588
  1116.069946  0.425460  0.675926  0.776822  0.877717  1.136131
  1119.550049  0.424816  0.676762  0.777800  0.878838  1.134870
  1123.040039  0.424376  0.677289  0.778461  0.879632  1.129207
  1126.520020  0.424241  0.677370  0.778617  0.879864  1.121674
  1130.010010  0.424890  0.676707  0.778003  0.879298  1.108242
  1133.500000  0.425243  0.675408  0.776713  0.878018  1.090269
  1136.989990  0.423253  0.673450  0.774955  0.876460  1.070017
  1140.469971  0.418998  0.671707  0.773473  0.875238  1.056905
  1143.959961  0.415716  0.670573  0.772527  0.874481  1.054034
  1147.449951  0.414652  0.670261  0.772180  0.874100  1.052961
  1150.939941  0.417587  0.670569  0.772271  0.873974  1.058522
  1154.430054  0.420727  0.670866  0.772227  0.873589  1.077766
  1157.930054  0.419170  0.670274  0.771370  0.872465  1.095894
  1161.420044  0.421232  0.669022  0.769765  0.870507  1.104604
  1164.910034  0.418933  0.667180  0.767665  0.868150  1.109331
  1168.400024  0.417786  0.665389  0.765612  0.865835  1.109341
  1171.900024  0.416018  0.663687  0.763645  0.863603  1.108242
  1175.390015  0.413964  0.661861  0.761650  0.861439  1.111628
  1178.890015  0.411751  0.660252  0.759861  0.859469  1.108205
  1182.380005  0.413887  0.659032  0.758473  0.857913  1.104552
  1185.880005  0.412568  0.658247  0.757672  0.857096  1.101161
  1189.369995  0.412333  0.658320  0.757786  0.857253  1.101062
  1192.869995  0.411042  0.658994  0.758598  0.858202  1.098804
  1196.369995  0.413986  0.660127  0.759904  0.859681  1.099414
  1199.869995  0.413457  0.661331  0.761412  0.861493  1.096321
  1203.369995  0.414209  0.662768  0.763082  0.863396  1.095494
  1206.869995  0.415194  0.664287  0.764866  0.865446  1.096256
  1210.369995  0.417920  0.666107  0.766946  0.867784  1.099539
  1213.869995  0.418784  0.668291  0.769470  0.870650  1.106154
  1217.369995  0.418462  0.670955  0.772434  0.873914  1.114493
  1220.869995  0.421787  0.673547  0.775418  0.877290  1.120628
  1224.369995  0.423544  0.676443  0.778684  0.880925  1.130134
  1227.869995  0.423377  0.679188  0.781828  0.884467  1.138427
  1231.380005  0.424340  0.681791  0.784789  0.887787  1.146453
  1234.880005  0.428415  0.684160  0.787465  0.890770  1.155591
  1238.390015  0.429936  0.686452  0.790064  0.893675  1.158930
  1241.890015  0.431204  0.688447  0.792329  0.896211  1.165161
  1245.400024  0.430232  0.690184  0.794338  0.898491  1.168035
  1248.900024  0.432083  0.691759  0.796217  0.900675  1.173040
  1252.410034  0.433371  0.693218  0.797860  0.902502  1.170431
  1255.920044  0.434239  0.694549  0.799431  0.904313  1.180076
  1259.420044  0.437175  0.695690  0.800776  0.905862  1.180558
  1262.930054  0.436246  0.696588  0.801882  0.907176  1.184953
  1266.439941  0.432774  0.697711  0.803130  0.908549  1.183467
  1269.949951  0.437553  0.698570  0.804217  0.909864  1.185897
  1273.459961  0.437539  0.699673  0.805453  0.911233  1.189696
  1276.969971  0.438684  0.700659  0.806651  0.912642  1.195416
  1280.479980  0.437806  0.701791  0.807986  0.914181  1.194607
  1283.989990  0.438808  0.702849  0.809298  0.915747  1.200158
  1287.510010  0.436988  0.704053  0.810695  0.917338  1.202219
  1291.020020  0.444003  0.704958  0.811815  0.918673  1.201076
  1294.530029  0.440476  0.705940  0.812947  0.919955  1.200644
  1298.050049  0.441480  0.706416  0.813649  0.920882  1.201710
  1301.560059  0.440307  0.707091  0.814385  0.921679  1.203743
  1305.079956  0.438934  0.707414  0.814809  0.922204  1.208296
  1308.589966  0.442686  0.707665  0.815146  0.922627  1.204459
  1312.109985  0.440796  0.707445  0.815058  0.922671  1.208528
  1315.619995  0.439956  0.707122  0.814748  0.922374  1.205301
  1319.140015  0.440874  0.706133  0.813782  0.921430  1.210086
  1322.660034  0.441102  0.705077  0.812607  0.920137  1.207165
  1326.180054  0.435992  0.703053  0.810432  0.917812  1.202452
  1329.699951  0.437318  0.700521  0.807680  0.914839  1.198089
  1333.219971  0.433334  0.697041  0.803922  0.910802  1.195167
  1336.739990  0.431303  0.693229  0.799693  0.906156  1.185703
  1340.260010  0.426603  0.688871  0.794936  0.901001  1.181419
  1343.780029  0.422898  0.684209  0.789696  0.895183  1.174476
  1347.300049  0.417029  0.678974  0.783929  0.888884  1.162028
  1350.819946  0.411285  0.673739  0.778144  0.882549  1.157002
  1354.349976  0.408519  0.668769  0.772605  0.876442  1.149241
  1357.869995  0.405363  0.664232  0.767494  0.870756  1.143192
  1361.390015  0.401144  0.659728  0.762483  0.865237  1.136357
  1364.920044  0.395258  0.655501  0.757867  0.860232  1.131092
  1368.439941  0.391967  0.651405  0.753389  0.855373  1.118329
  1371.969971  0.386951  0.647737  0.749374  0.851010  1.115227
  1375.500000  0.384655  0.644680  0.746133  0.847586  1.107564
  1379.020020  0.381404  0.642135  0.743190  0.844244  1.101320
  1382.550049  0.382417  0.638961  0.739660  0.840360  1.095151
  1386.079956  0.374558  0.635022  0.735437  0.835851  1.090121
  1389.609985  0.373633  0.630041  0.729968  0.829895  1.079219
  1393.140015  0.363598  0.624391  0.723520  0.822649  1.071887
  1396.670044  0.364985  0.617254  0.715611  0.813969  1.058851
  1400.199951  0.353192  0.609567  0.706922  0.804278  1.047382
  1403.729980  0.349681  0.600375  0.696634  0.792894  1.033144
  1407.260010  0.337062  0.590041  0.685075  0.780109  1.017748
  1410.790039  0.329623  0.578822  0.672496  0.766170  0.995385
  1414.319946  0.318271  0.566642  0.658878  0.751113  0.981451
  1417.859985  0.311340  0.554260  0.644882  0.735503  0.964108
  1421.390015  0.300991  0.542122  0.631112  0.720102  0.946099
  1424.920044  0.292213  0.530352  0.617809  0.705266  0.927303
  1428.459961  0.284236  0.519773  0.605812  0.691851  0.909860
  1431.989990  0.276761  0.510190  0.594980  0.679769  0.898598
  1435.530029  0.268893  0.502328  0.586007  0.669686  0.886280
  1439.069946  0.266525  0.495508  0.578349  0.661191  0.875403
  1442.599976  0.262122  0.489973  0.572112  0.654251  0.865426
  1446.140015  0.258233  0.485577  0.567154  0.648730  0.863784
  1449.680054  0.253604  0.482071  0.563210  0.644349  0.858552
  1453.219971  0.253497  0.479287  0.560057  0.640826  0.856614
  1456.760010  0.251730  0.477164  0.557672  0.638180  0.850389
  1460.300049  0.249091  0.475063  0.555463  0.635864  0.854791
  1463.839966  0.248492  0.473954  0.554251  0.634549  0.850850
  1467.380005  0.247797  0.472983  0.553213  0.633443  0.852040
  1470.920044  0.248157  0.472686  0.552997  0.633308  0.849462
  1474.459961  0.245933  0.472386  0.552788  0.633190  0.854024
  1478.010010  0.248232  0.472795  0.553353  0.633910  0.855455
  1481.550049  0.248222  0.473092  0.553765  0.634439  0.858464
  1485.089966  0.248931  0.473515  0.554372  0.635229  0.857546
  1488.640015  0.244591  0.473704  0.554644  0.635584  0.857706
  1492.180054  0.246142  0.474345  0.555486  0.636628  0.857469
  1495.729980  0.245282  0.474849  0.556199  0.637549  0.862380
  1499.270020  0.247305  0.475887  0.557421  0.638956  0.866162
  1502.819946  0.245186  0.476767  0.558504  0.640241  0.870510
  1506.369995  0.246469  0.477760  0.559794  0.641829  0.869478
  1509.910034  0.246695  0.478721  0.560957  0.643193  0.875660
  1513.459961  0.250286  0.479690  0.562167  0.644643  0.876309
  1517.010010  0.248357  0.480393  0.563082  0.645770  0.879856
  1520.560059  0.247647  0.481015  0.564014  0.647012  0.884052
  1524.109985  0.248114  0.481653  0.564791  0.647928  0.884459
  1527.660034  0.248618  0.482046  0.565363  0.648679  0.885655
  1531.209961  0.244760  0.481987  0.565451  0.648914  0.885289
  1534.760010  0.247589  0.482122  0.565682  0.649241  0.889074
  1538.319946  0.247353  0.481941  0.565599  0.649257  0.889909
  1541.869995  0.246882  0.481765  0.565431  0.649098  0.891138
  1545.420044  0.244732  0.481101  0.564760  0.648419  0.889135
  1548.979980  0.244026  0.480341  0.564037  0.647732  0.891364
  1552.530029  0.242990  0.479477  0.563189  0.646901  0.888063
  1556.089966  0.242608  0.478625  0.562314  0.646003  0.890331
  1559.640015  0.243853  0.477475  0.561152  0.644828  0.887460
  1563.199951  0.240612  0.476600  0.560233  0.643866  0.888163
  1566.750000  0.239668  0.475595  0.559261  0.642927  0.888368
  1570.310059  0.238343  0.474638  0.558260  0.641882  0.889605
  1573.869995  0.240365  0.473789  0.557413  0.641036  0.888480
  1577.430054  0.235827  0.473357  0.556954  0.640550  0.888401
  1580.989990  0.236508  0.472488  0.556157  0.639827  0.886383
  1584.550049  0.235651  0.472087  0.555750  0.639414  0.885388
  1588.109985  0.236602  0.471347  0.555048  0.638750  0.883275
  1591.670044  0.234768  0.471374  0.555083  0.638792  0.884562
  1595.229980  0.235640  0.470720  0.554478  0.638235  0.883879
  1598.790039  0.232306  0.470393  0.554219  0.638045  0.880563
  1602.349976  0.231685  0.469996  0.553769  0.637543  0.879135
  1605.920044  0.229005  0.469405  0.553189  0.636974  0.880843
  1609.479980  0.230779  0.468742  0.552597  0.636451  0.874481
  1613.040039  0.230871  0.467727  0.551540  0.635353  0.871286
  1616.609985  0.227239  0.466352  0.550090  0.633829  0.863179
  1620.170044  0.225749  0.464870  0.548475  0.632080  0.852561
  1623.739990  0.225472  0.462456  0.546032  0.629609  0.833745
  1627.310059  0.220480  0.460196  0.543706  0.627215  0.809568
  1630.869995  0.216814  0.457573  0.541179  0.624786  0.792050
  1634.439941  0.214615  0.455555  0.539282  0.623010  0.780095
  1638.010010  0.213551  0.453632  0.537544  0.621455  0.782437
  1641.579956  0.211655  0.452682  0.536631  0.620579  0.780009
  1645.150024  0.208712  0.451928  0.535870  0.619812  0.778006
  1648.709961  0.209921  0.451279  0.535149  0.619019  0.778638
  1652.290039  0.206938  0.450396  0.534071  0.617747  0.772658
  1655.859985  0.208082  0.447827  0.531506  0.615185  0.772886
  1659.430054  0.201605  0.443236  0.527387  0.611539  0.766098
  1663.000000  0.199366  0.436084  0.521873  0.607662  0.767116
  1666.569946  0.187264  0.427316  0.515716  0.604115  0.756206
  1670.140015  0.181398  0.417361  0.509403  0.601445  0.754690
  1673.719971  0.171346  0.408400  0.503704  0.599009  0.745822
  1677.290039  0.167461  0.402061  0.499451  0.596841  0.743764
  1680.869995  0.158442  0.398545  0.496403  0.594262  0.735665
  1684.439941  0.163896  0.396910  0.493706  0.590502  0.731311
  1688.020020  0.159960  0.395804  0.490428  0.585053  0.722767
  1691.589966  0.165276  0.394611  0.486585  0.578559  0.708036
  1695.170044  0.164003  0.393987  0.482988  0.571989  0.703239
  1698.750000  0.172298  0.394480  0.479667  0.564855  0.704304
  1702.329956  0.170799  0.395774  0.477136  0.558499  0.694189
  1705.910034  0.184891  0.396267  0.474294  0.552321  0.679853
  1709.489990  0.179689  0.395521  0.470934  0.546348  0.669173
  1713.069946  0.179804  0.392820  0.466267  0.539713  0.671548
  1716.650024  0.177614  0.390429  0.461063  0.531697  0.648879
  1720.229980  0.184832  0.385646  0.454420  0.523195  0.628967
