ENVI ASCII Plot File [Sun Apr 06 16:51:57 2025]
Column 1: Wavelength
Column 2: Min: ROI #55~~2##255,0,0
Column 3: Mean-StdDev: ROI #55~~21##0,200,0
Column 4: Mean: ROI #55~~0##0,0,0
Column 5: Mean+StdDev: ROI #55~~21##0,200,0
Column 6: Max: ROI #55~~2##255,0,0
   935.609985  0.193785  0.396867  0.456543  0.516219  0.635845
   939.059998  0.199841  0.398993  0.458858  0.518723  0.629234
   942.520020  0.238135  0.409748  0.482075  0.554402  0.667934
   945.979980  0.220788  0.415646  0.499369  0.583093  0.695644
   949.429993  0.210023  0.419953  0.511600  0.603248  0.722022
   952.890015  0.213119  0.426056  0.521589  0.617123  0.731375
   956.349976  0.214951  0.430968  0.528667  0.626365  0.750932
   959.809998  0.215618  0.434836  0.533823  0.632810  0.753995
   963.270020  0.216465  0.438521  0.538483  0.638445  0.764811
   966.729980  0.214984  0.441865  0.542620  0.643375  0.767929
   970.190002  0.220045  0.445474  0.546912  0.648349  0.775503
   973.650024  0.221182  0.448371  0.550471  0.652571  0.780346
   977.109985  0.223928  0.451419  0.554171  0.656924  0.786510
   980.580017  0.223648  0.454718  0.558028  0.661338  0.789687
   984.039978  0.226120  0.457841  0.561742  0.665643  0.794334
   987.510010  0.225418  0.460754  0.565229  0.669703  0.797996
   990.969971  0.229970  0.463938  0.569023  0.674109  0.808265
   994.429993  0.229228  0.467120  0.572771  0.678422  0.812907
   997.900024  0.234718  0.470564  0.576729  0.682893  0.819949
  1001.369995  0.232893  0.473417  0.580202  0.686986  0.821912
  1004.830017  0.235742  0.476544  0.583842  0.691140  0.827379
  1008.299988  0.236341  0.479725  0.587574  0.695423  0.832165
  1011.770020  0.237438  0.483196  0.591543  0.699891  0.837046
  1015.239990  0.241185  0.486165  0.595101  0.704037  0.843783
  1018.710022  0.243058  0.489127  0.598608  0.708089  0.846921
  1022.179993  0.243946  0.492275  0.602313  0.712352  0.851078
  1025.650024  0.245834  0.495385  0.605982  0.716579  0.855840
  1029.119995  0.249026  0.498446  0.609585  0.720724  0.864153
  1032.589966  0.249384  0.501629  0.613309  0.724989  0.868975
  1036.060059  0.251705  0.504511  0.616705  0.728899  0.874382
  1039.530029  0.252950  0.507508  0.620224  0.732940  0.876476
  1043.000000  0.257029  0.510576  0.623820  0.737063  0.881757
  1046.479980  0.259383  0.513685  0.627420  0.741154  0.887158
  1049.949951  0.261633  0.516575  0.630812  0.745050  0.892681
  1053.430054  0.261661  0.519386  0.634103  0.748821  0.896992
  1056.900024  0.262864  0.522288  0.637506  0.752723  0.901343
  1060.380005  0.265829  0.525152  0.640846  0.756540  0.906075
  1063.849976  0.267495  0.527948  0.644157  0.760366  0.910872
  1067.329956  0.269407  0.530737  0.647456  0.764176  0.914248
  1070.810059  0.272940  0.533506  0.650678  0.767849  0.917781
  1074.290039  0.274401  0.536252  0.653907  0.771563  0.924388
  1077.760010  0.274954  0.538928  0.657050  0.775171  0.928487
  1081.239990  0.276712  0.541684  0.660273  0.778862  0.932706
  1084.719971  0.278828  0.544297  0.663369  0.782441  0.937613
  1088.199951  0.280308  0.546685  0.666239  0.785793  0.941821
  1091.680054  0.281386  0.549086  0.669092  0.789098  0.945803
  1095.170044  0.281985  0.551501  0.671961  0.792420  0.949539
  1098.650024  0.282829  0.553856  0.674712  0.795569  0.953711
  1102.130005  0.286193  0.555915  0.677169  0.798424  0.956646
  1105.609985  0.287796  0.557877  0.679547  0.801218  0.959374
  1109.099976  0.288367  0.559856  0.681897  0.803937  0.962660
  1112.579956  0.290191  0.561740  0.684192  0.806645  0.966895
  1116.069946  0.289924  0.563529  0.686396  0.809263  0.969539
  1119.550049  0.290824  0.565304  0.688548  0.811792  0.973204
  1123.040039  0.291812  0.566845  0.690492  0.814139  0.975963
  1126.520020  0.293418  0.568158  0.692181  0.816204  0.979112
  1130.010010  0.293730  0.569006  0.693389  0.817772  0.981455
  1133.500000  0.294460  0.569504  0.694264  0.819024  0.983658
  1136.989990  0.293589  0.569501  0.694750  0.819999  0.985291
  1140.469971  0.292779  0.569699  0.695350  0.821001  0.987627
  1143.959961  0.291863  0.570142  0.696110  0.822079  0.987409
  1147.449951  0.294159  0.570985  0.697120  0.823256  0.988943
  1150.939941  0.292962  0.572139  0.698297  0.824455  0.989768
  1154.430054  0.293160  0.573273  0.699260  0.825248  0.991097
  1157.930054  0.294473  0.573824  0.699639  0.825453  0.991558
  1161.420044  0.298121  0.574138  0.699801  0.825463  0.991927
  1164.910034  0.296982  0.573938  0.699536  0.825133  0.990914
  1168.400024  0.297171  0.573780  0.699320  0.824860  0.991922
  1171.900024  0.296516  0.573671  0.699205  0.824739  0.993679
  1175.390015  0.298156  0.573579  0.699055  0.824531  0.991368
  1178.890015  0.295905  0.573343  0.698786  0.824229  0.989366
  1182.380005  0.295422  0.573175  0.698660  0.824146  0.989318
  1185.880005  0.295362  0.573311  0.698906  0.824502  0.993143
  1189.369995  0.294621  0.573861  0.699712  0.825564  0.993528
  1192.869995  0.296106  0.574823  0.700987  0.827150  0.995789
  1196.369995  0.297920  0.576101  0.702571  0.829041  0.996519
  1199.869995  0.296250  0.577424  0.704247  0.831070  1.001332
  1203.369995  0.298612  0.578885  0.706027  0.833169  1.003248
  1206.869995  0.298782  0.580389  0.707944  0.835499  1.008521
  1210.369995  0.301294  0.582194  0.710129  0.838064  1.008079
  1213.869995  0.302352  0.584420  0.712720  0.841020  1.014491
  1217.369995  0.303452  0.587158  0.715898  0.844638  1.019972
  1220.869995  0.306674  0.589877  0.719102  0.848327  1.025778
  1224.369995  0.307811  0.592872  0.722607  0.852343  1.028456
  1227.869995  0.311868  0.595784  0.726008  0.856231  1.032490
  1231.380005  0.310582  0.598649  0.729337  0.860024  1.034894
  1234.880005  0.313924  0.601146  0.732282  0.863417  1.042719
  1238.390015  0.311905  0.603614  0.735135  0.866656  1.044399
  1241.890015  0.314042  0.605809  0.737790  0.869771  1.051836
  1245.400024  0.315646  0.607853  0.740236  0.872619  1.054443
  1248.900024  0.318319  0.609786  0.742572  0.875357  1.055731
  1252.410034  0.319710  0.611737  0.744864  0.877990  1.056784
  1255.920044  0.323041  0.613444  0.746927  0.880410  1.063005
  1259.420044  0.321761  0.615023  0.748827  0.882631  1.067792
  1262.930054  0.324660  0.616515  0.750669  0.884822  1.068975
  1266.439941  0.324294  0.618108  0.752536  0.886964  1.072684
  1269.949951  0.327218  0.619416  0.754210  0.889004  1.075313
  1273.459961  0.329568  0.620998  0.756019  0.891041  1.077782
  1276.969971  0.328150  0.622346  0.757713  0.893080  1.081296
  1280.479980  0.323046  0.623793  0.759553  0.895313  1.084470
  1283.989990  0.330943  0.625100  0.761218  0.897335  1.084710
  1287.510010  0.332139  0.626700  0.763097  0.899495  1.090565
  1291.020020  0.332494  0.627843  0.764641  0.901438  1.092840
  1294.530029  0.335567  0.629253  0.766281  0.903309  1.095097
  1298.050049  0.334075  0.630249  0.767609  0.904970  1.098468
  1301.560059  0.336167  0.631482  0.769086  0.906690  1.099054
  1305.079956  0.332239  0.632384  0.770254  0.908123  1.101902
  1308.589966  0.338399  0.633243  0.771334  0.909425  1.102408
  1312.109985  0.334695  0.633727  0.772064  0.910400  1.105915
  1315.619995  0.336910  0.634151  0.772601  0.911051  1.107363
  1319.140015  0.333980  0.634083  0.772696  0.911309  1.109930
  1322.660034  0.335025  0.634025  0.772609  0.911192  1.106419
  1326.180054  0.334766  0.633280  0.771932  0.910584  1.106068
  1329.699951  0.336390  0.632310  0.770848  0.909386  1.106643
  1333.219971  0.329054  0.630427  0.768904  0.907381  1.104938
  1336.739990  0.330955  0.628392  0.766617  0.904842  1.097173
  1340.260010  0.325292  0.625780  0.763820  0.901860  1.096929
  1343.780029  0.326144  0.622984  0.760617  0.898251  1.092346
  1347.300049  0.322589  0.619418  0.756615  0.893813  1.087463
  1350.819946  0.321118  0.615830  0.752577  0.889324  1.083298
  1354.349976  0.314677  0.612309  0.748567  0.884824  1.076797
  1357.869995  0.315044  0.609032  0.744784  0.880536  1.074070
  1361.390015  0.311798  0.605833  0.741204  0.876575  1.068396
  1364.920044  0.309221  0.602780  0.737819  0.872858  1.060940
  1368.439941  0.305637  0.599802  0.734582  0.869363  1.058293
  1371.969971  0.305478  0.597301  0.731901  0.866501  1.054283
  1375.500000  0.301164  0.594885  0.729322  0.863759  1.050599
  1379.020020  0.298387  0.592987  0.727031  0.861075  1.046037
  1382.550049  0.297743  0.590623  0.724386  0.858149  1.045733
  1386.079956  0.293906  0.587554  0.721163  0.854773  1.042073
  1389.609985  0.291703  0.583849  0.717055  0.850261  1.035796
  1393.140015  0.288358  0.579890  0.712319  0.844749  1.028057
  1396.670044  0.287285  0.574686  0.706384  0.838083  1.022182
  1400.199951  0.282928  0.569018  0.699758  0.830497  1.013067
  1403.729980  0.276006  0.561700  0.691444  0.821188  1.002977
  1407.260010  0.269956  0.553283  0.681719  0.810154  0.989750
  1410.790039  0.264444  0.543745  0.670774  0.797803  0.974118
  1414.319946  0.251501  0.533401  0.658846  0.784291  0.958436
  1417.859985  0.249747  0.522673  0.646365  0.770058  0.939428
  1421.390015  0.242052  0.512079  0.633872  0.755665  0.924145
  1424.920044  0.237722  0.501426  0.621455  0.741485  0.905133
  1428.459961  0.223932  0.491918  0.610273  0.728628  0.892026
  1431.989990  0.226551  0.483126  0.599973  0.716819  0.876686
  1435.530029  0.219998  0.475789  0.591334  0.706880  0.865799
  1439.069946  0.218047  0.469491  0.583908  0.698326  0.851355
  1442.599976  0.209056  0.464450  0.578078  0.691706  0.844073
  1446.140015  0.211316  0.460650  0.573569  0.686488  0.836659
  1449.680054  0.208234  0.457496  0.569993  0.682491  0.834030
  1453.219971  0.207095  0.455118  0.567238  0.679358  0.827067
  1456.760010  0.204945  0.453520  0.565371  0.677223  0.825079
  1460.300049  0.204093  0.451878  0.563612  0.675345  0.820835
  1463.839966  0.203092  0.451053  0.562742  0.674432  0.825212
  1467.380005  0.203620  0.450524  0.562237  0.673950  0.822740
  1470.920044  0.205155  0.450480  0.562312  0.674143  0.821238
  1474.459961  0.204455  0.450315  0.562329  0.674344  0.821682
  1478.010010  0.205269  0.450883  0.563050  0.675217  0.823386
  1481.550049  0.204100  0.451293  0.563664  0.676034  0.824352
  1485.089966  0.204096  0.451841  0.564425  0.677009  0.827499
  1488.640015  0.201407  0.452208  0.565105  0.678001  0.830668
  1492.180054  0.204284  0.453139  0.566308  0.679477  0.829337
  1495.729980  0.202403  0.453818  0.567281  0.680743  0.829607
  1499.270020  0.206957  0.455087  0.568854  0.682621  0.835585
  1502.819946  0.202096  0.456030  0.570112  0.684194  0.837559
  1506.369995  0.207196  0.457124  0.571569  0.686014  0.841166
  1509.910034  0.205442  0.458206  0.573026  0.687846  0.843289
  1513.459961  0.210143  0.459311  0.574411  0.689512  0.846891
  1517.010010  0.204584  0.460128  0.575596  0.691064  0.848686
  1520.560059  0.208859  0.460906  0.576725  0.692543  0.851192
  1524.109985  0.207172  0.461400  0.577424  0.693449  0.850633
  1527.660034  0.210314  0.461960  0.578255  0.694549  0.850823
  1531.209961  0.208818  0.461896  0.578459  0.695022  0.856371
  1534.760010  0.208582  0.462257  0.578885  0.695513  0.854829
  1538.319946  0.205779  0.461994  0.578742  0.695490  0.855547
  1541.869995  0.210122  0.461815  0.578572  0.695330  0.853904
  1545.420044  0.207474  0.461211  0.578101  0.694991  0.854171
  1548.979980  0.209318  0.460605  0.577404  0.694202  0.852239
  1552.530029  0.205930  0.459678  0.576580  0.693482  0.854688
  1556.089966  0.207197  0.458912  0.575760  0.692607  0.850865
  1559.640015  0.204698  0.457859  0.574728  0.691596  0.854894
  1563.199951  0.203706  0.456940  0.573824  0.690709  0.847834
  1566.750000  0.204901  0.455928  0.572754  0.689581  0.849918
  1570.310059  0.204749  0.455011  0.571843  0.688676  0.847507
  1573.869995  0.203401  0.454311  0.571198  0.688085  0.849983
  1577.430054  0.199508  0.453970  0.570867  0.687764  0.846365
  1580.989990  0.202674  0.453326  0.570308  0.687289  0.852425
  1584.550049  0.200239  0.452948  0.569972  0.686996  0.851681
  1588.109985  0.200991  0.452313  0.569489  0.686664  0.852869
  1591.670044  0.200250  0.452407  0.569530  0.686654  0.849992
  1595.229980  0.202604  0.451837  0.569077  0.686316  0.849302
  1598.790039  0.195454  0.451742  0.569115  0.686488  0.852582
  1602.349976  0.201958  0.451497  0.568957  0.686418  0.854970
  1605.920044  0.197557  0.451088  0.568658  0.686227  0.850336
  1609.479980  0.201219  0.450721  0.568359  0.685996  0.850477
  1613.040039  0.195458  0.449781  0.567500  0.685219  0.848334
  1616.609985  0.198691  0.448760  0.566427  0.684093  0.847414
  1620.170044  0.195900  0.447603  0.565293  0.682983  0.848384
  1623.739990  0.197590  0.445931  0.563698  0.681465  0.848268
  1627.310059  0.192349  0.444421  0.562259  0.680098  0.848975
  1630.869995  0.192371  0.442533  0.560473  0.678413  0.845315
  1634.439941  0.190998  0.441418  0.559470  0.677523  0.845116
  1638.010010  0.192118  0.440438  0.558676  0.676913  0.846250
  1641.579956  0.192168  0.440001  0.558370  0.676738  0.847175
  1645.150024  0.191358  0.439716  0.558130  0.676545  0.845135
  1648.709961  0.191128  0.439327  0.557803  0.676278  0.845085
  1652.290039  0.191501  0.438788  0.557115  0.675441  0.842634
  1655.859985  0.191800  0.437092  0.555405  0.673719  0.841107
  1659.430054  0.188496  0.433951  0.552438  0.670925  0.838772
  1663.000000  0.186161  0.429308  0.548217  0.667125  0.839168
  1666.569946  0.183018  0.423745  0.543343  0.662940  0.826819
  1670.140015  0.172805  0.417619  0.538144  0.658670  0.827461
  1673.719971  0.166372  0.411981  0.533175  0.654370  0.820256
  1677.290039  0.158382  0.407316  0.528892  0.650468  0.819759
  1680.869995  0.160616  0.404011  0.525233  0.646455  0.811603
  1684.439941  0.157694  0.401488  0.521636  0.641784  0.807404
  1688.020020  0.163854  0.398768  0.517153  0.635538  0.795851
  1691.589966  0.159627  0.395506  0.511814  0.628122  0.787620
  1695.170044  0.168048  0.392752  0.506613  0.620473  0.774239
  1698.750000  0.173314  0.389884  0.500722  0.611561  0.762083
  1702.329956  0.176007  0.387852  0.495514  0.603177  0.757199
  1705.910034  0.179120  0.385528  0.489978  0.594429  0.747178
  1709.489990  0.180141  0.382885  0.484589  0.586292  0.724360
  1713.069946  0.184074  0.379693  0.477920  0.576148  0.715444
  1716.650024  0.177787  0.375108  0.470089  0.565069  0.692548
  1720.229980  0.176156  0.370291  0.461658  0.553026  0.686190
