ENVI ASCII Plot File [Sun Apr 06 16:57:21 2025]
Column 1: Wavelength
Column 2: Min: ROI #61~~2##255,0,0
Column 3: Mean-StdDev: ROI #61~~21##0,200,0
Column 4: Mean: ROI #61~~0##0,0,0
Column 5: Mean+StdDev: ROI #61~~21##0,200,0
Column 6: Max: ROI #61~~2##255,0,0
   935.609985  0.265096  0.461612  0.537999  0.614386  0.749891
   939.059998  0.263569  0.464243  0.540984  0.617725  0.750699
   942.520020  0.253928  0.481571  0.570861  0.660150  0.832549
   945.979980  0.252104  0.494280  0.592639  0.690999  0.873416
   949.429993  0.238343  0.502646  0.607930  0.713214  0.922141
   952.890015  0.244788  0.509979  0.618166  0.726353  0.943435
   956.349976  0.241886  0.515009  0.625258  0.735507  0.957294
   959.809998  0.240587  0.518947  0.630276  0.741606  0.964564
   963.270020  0.241061  0.522298  0.634577  0.746857  0.970619
   966.729980  0.246524  0.525502  0.638455  0.751409  0.981984
   970.190002  0.243370  0.528629  0.642409  0.756189  0.988531
   973.650024  0.248108  0.531194  0.645552  0.759910  0.995961
   977.109985  0.248626  0.533872  0.648854  0.763836  1.000869
   980.580017  0.254824  0.536820  0.652265  0.767709  1.006201
   984.039978  0.253067  0.539469  0.655527  0.771585  1.012053
   987.510010  0.257099  0.542065  0.658647  0.775228  1.018340
   990.969971  0.256993  0.544728  0.661925  0.779122  1.022519
   994.429993  0.260063  0.547482  0.665160  0.782839  1.025153
   997.900024  0.259106  0.550368  0.668576  0.786785  1.031650
  1001.369995  0.262026  0.552891  0.671659  0.790427  1.034920
  1004.830017  0.261573  0.555574  0.674872  0.794169  1.040663
  1008.299988  0.262357  0.558340  0.678159  0.797978  1.044496
  1011.770020  0.263006  0.561310  0.681636  0.801962  1.050250
  1015.239990  0.266764  0.563872  0.684759  0.805646  1.054759
  1018.710022  0.268233  0.566469  0.687859  0.809248  1.060986
  1022.179993  0.269159  0.569158  0.691109  0.813059  1.063888
  1025.650024  0.271653  0.571896  0.694365  0.816834  1.069896
  1029.119995  0.274154  0.574447  0.697484  0.820521  1.076051
  1032.589966  0.275914  0.577176  0.700683  0.824190  1.080840
  1036.060059  0.276818  0.579577  0.703605  0.827634  1.085587
  1039.530029  0.278241  0.582101  0.706641  0.831182  1.091064
  1043.000000  0.279779  0.584712  0.709741  0.834771  1.095305
  1046.479980  0.281529  0.587375  0.712840  0.838306  1.099959
  1049.949951  0.280537  0.589797  0.715829  0.841861  1.105656
  1053.430054  0.282817  0.592249  0.718706  0.845164  1.111321
  1056.900024  0.284883  0.594682  0.721620  0.848558  1.115315
  1060.380005  0.286348  0.597083  0.724513  0.851943  1.118521
  1063.849976  0.286613  0.599394  0.727345  0.855296  1.124173
  1067.329956  0.288970  0.601681  0.730159  0.858638  1.128648
  1070.810059  0.291100  0.603989  0.732909  0.861828  1.132843
  1074.290039  0.293064  0.606256  0.735627  0.864998  1.135715
  1077.760010  0.294003  0.608423  0.738235  0.868047  1.140046
  1081.239990  0.293784  0.610640  0.740900  0.871160  1.145092
  1084.719971  0.294954  0.612769  0.743447  0.874124  1.147560
  1088.199951  0.296570  0.614701  0.745808  0.876916  1.150726
  1091.680054  0.298980  0.616559  0.748073  0.879586  1.155573
  1095.170044  0.299140  0.618368  0.750301  0.882233  1.161934
  1098.650024  0.299660  0.620183  0.752474  0.884766  1.165549
  1102.130005  0.301511  0.621717  0.754373  0.887029  1.165818
  1105.609985  0.302292  0.623115  0.756099  0.889083  1.166373
  1109.099976  0.301863  0.624418  0.757689  0.890959  1.168689
  1112.579956  0.303453  0.625729  0.759307  0.892886  1.169400
  1116.069946  0.305374  0.626883  0.760753  0.894623  1.168951
  1119.550049  0.305746  0.627978  0.762122  0.896266  1.167363
  1123.040039  0.306276  0.628756  0.763123  0.897490  1.165471
  1126.520020  0.306382  0.629176  0.763745  0.898313  1.155405
  1130.010010  0.304099  0.629092  0.763796  0.898500  1.138568
  1133.500000  0.302431  0.628426  0.763206  0.897987  1.117991
  1136.989990  0.302888  0.627343  0.762229  0.897114  1.089656
  1140.469971  0.302317  0.626512  0.761589  0.896665  1.081878
  1143.959961  0.299805  0.626225  0.761499  0.896773  1.082975
  1147.449951  0.299603  0.626736  0.762205  0.897675  1.084413
  1150.939941  0.301149  0.627963  0.763482  0.899001  1.085821
  1154.430054  0.302033  0.629344  0.764806  0.900267  1.112111
  1157.930054  0.303749  0.630124  0.765527  0.900931  1.134330
  1161.420044  0.303349  0.630288  0.765594  0.900900  1.148524
  1164.910034  0.305258  0.629835  0.765029  0.900223  1.155392
  1168.400024  0.301757  0.629318  0.764397  0.899475  1.158807
  1171.900024  0.305270  0.628861  0.763791  0.898721  1.162149
  1175.390015  0.301895  0.628337  0.763168  0.898000  1.164886
  1178.890015  0.303179  0.627815  0.762533  0.897252  1.161864
  1182.380005  0.302734  0.627330  0.762033  0.896736  1.158712
  1185.880005  0.302691  0.627111  0.761862  0.896612  1.156156
  1189.369995  0.301257  0.627408  0.762272  0.897136  1.156597
  1192.869995  0.303497  0.628123  0.763211  0.898300  1.154318
  1196.369995  0.302341  0.629216  0.764549  0.899881  1.151011
  1199.869995  0.305027  0.630294  0.765977  0.901660  1.148789
  1203.369995  0.305999  0.631520  0.767527  0.903534  1.147822
  1206.869995  0.306869  0.632727  0.769116  0.905505  1.149586
  1210.369995  0.308108  0.634318  0.771026  0.907733  1.155668
  1213.869995  0.308574  0.636173  0.773329  0.910484  1.163238
  1217.369995  0.307553  0.638402  0.775962  0.913522  1.171113
  1220.869995  0.311189  0.640474  0.778594  0.916715  1.179891
  1224.369995  0.313022  0.642782  0.781281  0.919779  1.190351
  1227.869995  0.312514  0.645024  0.784016  0.923008  1.198757
  1231.380005  0.313661  0.647248  0.786649  0.926050  1.207618
  1234.880005  0.315747  0.649195  0.789068  0.928941  1.211280
  1238.390015  0.317374  0.651201  0.791431  0.931661  1.218951
  1241.890015  0.315746  0.652836  0.793520  0.934203  1.224906
  1245.400024  0.318471  0.654434  0.795427  0.936420  1.227463
  1248.900024  0.316497  0.655847  0.797258  0.938669  1.234437
  1252.410034  0.320453  0.657431  0.799104  0.940777  1.236662
  1255.920044  0.319668  0.658626  0.800679  0.942733  1.239139
  1259.420044  0.322112  0.659806  0.802063  0.944319  1.241316
  1262.930054  0.321345  0.660819  0.803436  0.946053  1.248664
  1266.439941  0.320418  0.662069  0.804852  0.947636  1.247963
  1269.949951  0.322622  0.662993  0.806140  0.949286  1.251297
  1273.459961  0.324011  0.664139  0.807490  0.950842  1.254643
  1276.969971  0.327015  0.665064  0.808725  0.952386  1.260247
  1280.479980  0.326467  0.666229  0.810151  0.954074  1.259694
  1283.989990  0.325658  0.667213  0.811491  0.955770  1.266677
  1287.510010  0.328737  0.668283  0.812831  0.957379  1.265564
  1291.020020  0.326303  0.669129  0.813972  0.958815  1.267424
  1294.530029  0.327817  0.670033  0.815143  0.960254  1.267821
  1298.050049  0.325107  0.670705  0.816102  0.961500  1.270912
  1301.560059  0.325824  0.671480  0.817073  0.962665  1.269693
  1305.079956  0.328342  0.672025  0.817780  0.963534  1.274551
  1308.589966  0.330049  0.672407  0.818394  0.964381  1.273863
  1312.109985  0.327270  0.672641  0.818718  0.964796  1.277127
  1315.619995  0.330063  0.672542  0.818720  0.964899  1.273736
  1319.140015  0.328883  0.672130  0.818333  0.964535  1.274415
  1322.660034  0.328081  0.671841  0.817893  0.963945  1.276702
  1326.180054  0.326520  0.670939  0.816938  0.962936  1.269343
  1329.699951  0.325937  0.669587  0.815402  0.961217  1.267673
  1333.219971  0.325905  0.667478  0.813025  0.958571  1.260858
  1336.739990  0.322164  0.665074  0.810228  0.955382  1.255786
  1340.260010  0.320454  0.662418  0.807120  0.951822  1.252202
  1343.780029  0.319041  0.659402  0.803558  0.947714  1.245098
  1347.300049  0.316474  0.655960  0.799466  0.942971  1.236115
  1350.819946  0.313340  0.652352  0.795226  0.938101  1.231692
  1354.349976  0.313110  0.649063  0.791209  0.933354  1.226731
  1357.869995  0.311259  0.645874  0.787410  0.928946  1.220343
  1361.390015  0.310241  0.642931  0.783937  0.924943  1.215335
  1364.920044  0.307622  0.640009  0.780589  0.921168  1.208950
  1368.439941  0.307155  0.637086  0.777232  0.917378  1.201039
  1371.969971  0.302690  0.634689  0.774510  0.914332  1.193395
  1375.500000  0.303537  0.632564  0.772186  0.911807  1.187529
  1379.020020  0.301842  0.630654  0.769885  0.909115  1.182541
  1382.550049  0.299613  0.628583  0.767418  0.906253  1.170630
  1386.079956  0.297905  0.626065  0.764539  0.903013  1.168829
  1389.609985  0.295693  0.622772  0.760809  0.898846  1.158515
  1393.140015  0.294016  0.619224  0.756362  0.893500  1.151259
  1396.670044  0.291629  0.614352  0.750726  0.887100  1.137906
  1400.199951  0.286885  0.609217  0.744457  0.879698  1.131067
  1403.729980  0.284399  0.602812  0.736850  0.870887  1.117359
  1407.260010  0.277379  0.595369  0.727977  0.860584  1.099847
  1410.790039  0.274834  0.587123  0.718160  0.849197  1.081979
  1414.319946  0.267606  0.578116  0.707393  0.836671  1.063303
  1417.859985  0.263413  0.568529  0.695938  0.823347  1.047837
  1421.390015  0.256623  0.558911  0.684337  0.809763  1.034493
  1424.920044  0.252665  0.549134  0.672634  0.796134  1.019687
  1428.459961  0.248337  0.540418  0.661940  0.783463  1.002017
  1431.989990  0.244893  0.532143  0.652092  0.772042  0.989456
  1435.530029  0.239107  0.525247  0.643694  0.762142  0.975537
  1439.069946  0.234229  0.519261  0.636582  0.753902  0.965725
  1442.599976  0.230033  0.514399  0.630733  0.747067  0.956378
  1446.140015  0.228915  0.510547  0.626177  0.741808  0.953038
  1449.680054  0.224985  0.507543  0.622557  0.737571  0.948519
  1453.219971  0.227477  0.505134  0.619760  0.734387  0.946361
  1456.760010  0.225075  0.503469  0.617725  0.731981  0.942611
  1460.300049  0.223631  0.501700  0.615836  0.729972  0.943773
  1463.839966  0.225207  0.500880  0.614849  0.728819  0.944154
  1467.380005  0.223012  0.500208  0.614093  0.727978  0.944529
  1470.920044  0.221730  0.500144  0.614033  0.727922  0.941614
  1474.459961  0.222433  0.499757  0.613804  0.727852  0.946324
  1478.010010  0.223772  0.500109  0.614339  0.728569  0.945084
  1481.550049  0.224377  0.500338  0.614709  0.729080  0.946969
  1485.089966  0.222767  0.500690  0.615223  0.729757  0.948051
  1488.640015  0.223529  0.500946  0.615607  0.730268  0.948977
  1492.180054  0.222846  0.501542  0.616487  0.731431  0.951577
  1495.729980  0.219826  0.501926  0.617145  0.732364  0.953207
  1499.270020  0.223374  0.502841  0.618266  0.733690  0.952405
  1502.819946  0.220028  0.503580  0.619268  0.734956  0.957310
  1506.369995  0.222706  0.504434  0.620428  0.736422  0.962814
  1509.910034  0.221671  0.505313  0.621616  0.737920  0.966250
  1513.459961  0.222537  0.506100  0.622713  0.739326  0.967302
  1517.010010  0.222335  0.506872  0.623669  0.740465  0.969916
  1520.560059  0.225288  0.507423  0.624511  0.741598  0.968845
  1524.109985  0.223484  0.507900  0.625178  0.742457  0.973819
  1527.660034  0.225979  0.508148  0.625667  0.743186  0.973162
  1531.209961  0.221816  0.508125  0.625821  0.743517  0.973342
  1534.760010  0.223366  0.508292  0.626073  0.743853  0.975595
  1538.319946  0.221588  0.508003  0.625814  0.743625  0.977388
  1541.869995  0.223540  0.507683  0.625576  0.743469  0.981004
  1545.420044  0.221415  0.507218  0.624984  0.742750  0.977086
  1548.979980  0.224798  0.506418  0.624161  0.741904  0.977077
  1552.530029  0.222050  0.505715  0.623363  0.741010  0.972727
  1556.089966  0.222149  0.504844  0.622439  0.740034  0.973570
  1559.640015  0.219543  0.503601  0.621146  0.738691  0.970033
  1563.199951  0.218320  0.502781  0.620216  0.737652  0.971301
  1566.750000  0.217588  0.501603  0.618975  0.736347  0.967615
  1570.310059  0.215633  0.500785  0.618034  0.735282  0.967985
  1573.869995  0.216137  0.499920  0.617233  0.734546  0.969913
  1577.430054  0.215382  0.499368  0.616580  0.733793  0.966546
  1580.989990  0.214490  0.498613  0.615826  0.733038  0.964231
  1584.550049  0.214239  0.498153  0.615291  0.732428  0.961604
  1588.109985  0.215564  0.497343  0.614584  0.731825  0.960139
  1591.670044  0.213897  0.497384  0.614502  0.731620  0.961888
  1595.229980  0.214386  0.496525  0.613778  0.731032  0.960715
  1598.790039  0.211817  0.496326  0.613519  0.730713  0.959459
  1602.349976  0.211306  0.495868  0.613115  0.730362  0.951329
  1605.920044  0.207211  0.495284  0.612569  0.729855  0.947958
  1609.479980  0.210673  0.494618  0.611892  0.729166  0.942791
  1613.040039  0.207686  0.493641  0.610803  0.727964  0.937116
  1616.609985  0.208459  0.492292  0.609342  0.726392  0.925579
  1620.170044  0.203423  0.490877  0.607650  0.724424  0.913822
  1623.739990  0.204530  0.488554  0.605201  0.721848  0.902025
  1627.310059  0.202616  0.486494  0.602916  0.719339  0.894722
  1630.869995  0.199076  0.483988  0.600390  0.716793  0.891811
  1634.439941  0.199590  0.482290  0.598691  0.715091  0.888787
  1638.010010  0.198479  0.480632  0.597112  0.713591  0.886114
  1641.579956  0.196451  0.479868  0.596303  0.712738  0.882872
  1645.150024  0.196656  0.479305  0.595786  0.712267  0.883749
  1648.709961  0.197713  0.479090  0.595517  0.711944  0.884728
  1652.290039  0.196083  0.478625  0.594901  0.711178  0.880786
  1655.859985  0.195342  0.476552  0.592739  0.708926  0.874512
  1659.430054  0.191755  0.472180  0.588593  0.705007  0.870520
  1663.000000  0.185925  0.465285  0.582919  0.700553  0.856026
  1666.569946  0.184709  0.456705  0.576387  0.696069  0.843833
  1670.140015  0.180909  0.447182  0.569802  0.692422  0.839543
  1673.719971  0.180109  0.438603  0.563926  0.689248  0.833701
  1677.290039  0.178238  0.432281  0.559391  0.686500  0.830193
  1680.869995  0.178392  0.428851  0.556147  0.683442  0.823592
  1684.439941  0.174509  0.427146  0.553362  0.679577  0.816198
  1688.020020  0.179997  0.426327  0.550267  0.674206  0.812975
  1691.589966  0.175596  0.425046  0.546326  0.667606  0.806456
  1695.170044  0.178509  0.424716  0.542858  0.661000  0.801415
  1698.750000  0.176771  0.424445  0.538794  0.653143  0.787625
  1702.329956  0.181422  0.425668  0.535952  0.646237  0.775710
  1705.910034  0.176757  0.425339  0.532633  0.639928  0.768519
  1709.489990  0.190263  0.424305  0.528265  0.632225  0.756290
  1713.069946  0.177291  0.420926  0.522246  0.623565  0.757474
  1716.650024  0.191012  0.418049  0.515958  0.613868  0.732595
  1720.229980  0.178715  0.413159  0.508199  0.603240  0.726631
