ENVI ASCII Plot File [Sun Apr 06 16:32:08 2025]
Column 1: Wavelength
Column 2: Min: ROI #37~~2##255,0,0
Column 3: Mean-StdDev: ROI #37~~21##0,200,0
Column 4: Mean: ROI #37~~0##0,0,0
Column 5: Mean+StdDev: ROI #37~~21##0,200,0
Column 6: Max: ROI #37~~2##255,0,0
   935.609985  0.228572  0.467794  0.544793  0.621791  0.727106
   939.059998  0.237889  0.470881  0.547860  0.624840  0.727689
   942.520020  0.247820  0.491537  0.577754  0.663970  0.772152
   945.979980  0.205771  0.504587  0.600428  0.696269  0.844940
   949.429993  0.211208  0.514541  0.616386  0.718232  0.876433
   952.890015  0.201857  0.522011  0.626975  0.731938  0.912707
   956.349976  0.210516  0.527702  0.634415  0.741128  0.919770
   959.809998  0.202521  0.531622  0.639411  0.747201  0.928891
   963.270020  0.210432  0.535381  0.644010  0.752639  0.938437
   966.729980  0.210725  0.538584  0.647911  0.757239  0.944025
   970.190002  0.217015  0.541786  0.651821  0.761856  0.951035
   973.650024  0.215040  0.544486  0.655089  0.765692  0.958731
   977.109985  0.217807  0.547319  0.658510  0.769701  0.964780
   980.580017  0.215616  0.550297  0.661947  0.773597  0.971165
   984.039978  0.218669  0.553029  0.665250  0.777471  0.977193
   987.510010  0.221628  0.555720  0.668433  0.781146  0.980025
   990.969971  0.224280  0.558535  0.671786  0.785038  0.985026
   994.429993  0.224802  0.561325  0.675084  0.788843  0.989941
   997.900024  0.227800  0.564340  0.678574  0.792809  0.995680
  1001.369995  0.225950  0.566969  0.681726  0.796483  0.998247
  1004.830017  0.229005  0.569789  0.684956  0.800124  1.003104
  1008.299988  0.232276  0.572537  0.688284  0.804030  1.010015
  1011.770020  0.231483  0.575540  0.691763  0.807986  1.015763
  1015.239990  0.233317  0.578251  0.695001  0.811750  1.020885
  1018.710022  0.238144  0.580920  0.698175  0.815430  1.021243
  1022.179993  0.240252  0.583752  0.701491  0.819231  1.027934
  1025.650024  0.240678  0.586607  0.704830  0.823053  1.031060
  1029.119995  0.243953  0.589256  0.708010  0.826764  1.038391
  1032.589966  0.241863  0.592024  0.711271  0.830518  1.043361
  1036.060059  0.247104  0.594682  0.714388  0.834094  1.048572
  1039.530029  0.246916  0.597304  0.717515  0.837727  1.052213
  1043.000000  0.249240  0.600032  0.720720  0.841409  1.058876
  1046.479980  0.249932  0.602850  0.723993  0.845136  1.061693
  1049.949951  0.253112  0.605442  0.727058  0.848675  1.065724
  1053.430054  0.254597  0.607930  0.729995  0.852060  1.071661
  1056.900024  0.255533  0.610415  0.732965  0.855515  1.075748
  1060.380005  0.257976  0.612919  0.735889  0.858859  1.081102
  1063.849976  0.259800  0.615410  0.738834  0.862258  1.085744
  1067.329956  0.260351  0.617818  0.741721  0.865624  1.091035
  1070.810059  0.261865  0.620201  0.744508  0.868814  1.094092
  1074.290039  0.264133  0.622619  0.747335  0.872050  1.098150
  1077.760010  0.266227  0.624836  0.750009  0.875182  1.104606
  1081.239990  0.267583  0.627035  0.752652  0.878268  1.107555
  1084.719971  0.267702  0.629226  0.755240  0.881254  1.111906
  1088.199951  0.269697  0.631217  0.757591  0.883965  1.115270
  1091.680054  0.269974  0.633075  0.759833  0.886591  1.118402
  1095.170044  0.271062  0.634902  0.762044  0.889186  1.122162
  1098.650024  0.272878  0.636695  0.764190  0.891684  1.126777
  1102.130005  0.273924  0.638178  0.765990  0.893802  1.128703
  1105.609985  0.275179  0.639486  0.767556  0.895625  1.131117
  1109.099976  0.276053  0.640732  0.769056  0.897379  1.132414
  1112.579956  0.277109  0.641865  0.770458  0.899050  1.134024
  1116.069946  0.276823  0.642905  0.771738  0.900571  1.131663
  1119.550049  0.277691  0.643810  0.772870  0.901930  1.129471
  1123.040039  0.280309  0.644455  0.773725  0.902994  1.125662
  1126.520020  0.280649  0.644693  0.774089  0.903485  1.119094
  1130.010010  0.279301  0.644159  0.773668  0.903178  1.118277
  1133.500000  0.278902  0.642965  0.772504  0.902042  1.117834
  1136.989990  0.276396  0.641124  0.770845  0.900565  1.118927
  1140.469971  0.278833  0.639554  0.769495  0.899436  1.120903
  1143.959961  0.276810  0.638642  0.768804  0.898967  1.119596
  1147.449951  0.278130  0.638884  0.769060  0.899235  1.117905
  1150.939941  0.276862  0.639949  0.769947  0.899944  1.118191
  1154.430054  0.276905  0.641138  0.770872  0.900607  1.117436
  1157.930054  0.277452  0.641448  0.770963  0.900479  1.117309
  1161.420044  0.278425  0.641026  0.770213  0.899401  1.114141
  1164.910034  0.276582  0.639993  0.768938  0.897883  1.112802
  1168.400024  0.275388  0.638913  0.767636  0.896358  1.112217
  1171.900024  0.274034  0.637777  0.766295  0.894812  1.111481
  1175.390015  0.274006  0.636618  0.764914  0.893209  1.112579
  1178.890015  0.273399  0.635517  0.763633  0.891748  1.110963
  1182.380005  0.273131  0.634668  0.762656  0.890644  1.108272
  1185.880005  0.273633  0.634255  0.762163  0.890071  1.105854
  1189.369995  0.273630  0.634345  0.762386  0.890426  1.103995
  1192.869995  0.273928  0.634956  0.763240  0.891524  1.104517
  1196.369995  0.275522  0.636103  0.764576  0.893050  1.106707
  1199.869995  0.275865  0.637197  0.766020  0.894844  1.107653
  1203.369995  0.276423  0.638493  0.767656  0.896818  1.110601
  1206.869995  0.277283  0.639863  0.769364  0.898864  1.113862
  1210.369995  0.277442  0.641550  0.771428  0.901306  1.116971
  1213.869995  0.278772  0.643665  0.773972  0.904278  1.119861
  1217.369995  0.280971  0.646212  0.776993  0.907773  1.125651
  1220.869995  0.284431  0.648895  0.780216  0.911536  1.129447
  1224.369995  0.284338  0.651617  0.783463  0.915309  1.139737
  1227.869995  0.286529  0.654384  0.786753  0.919122  1.147330
  1231.380005  0.287517  0.656936  0.789752  0.922568  1.156036
  1234.880005  0.291845  0.659151  0.792398  0.925645  1.160361
  1238.390015  0.291296  0.661365  0.794991  0.928616  1.171169
  1241.890015  0.293304  0.663289  0.797293  0.931296  1.175628
  1245.400024  0.292686  0.665019  0.799371  0.933722  1.182692
  1248.900024  0.296135  0.666571  0.801334  0.936097  1.183458
  1252.410034  0.294797  0.667885  0.802927  0.937968  1.186360
  1255.920044  0.298670  0.669255  0.804622  0.939989  1.187811
  1259.420044  0.297344  0.670365  0.805994  0.941623  1.191524
  1262.930054  0.297453  0.671401  0.807287  0.943173  1.195301
  1266.439941  0.299833  0.672581  0.808645  0.944710  1.200318
  1269.949951  0.298519  0.673449  0.809816  0.946183  1.199925
  1273.459961  0.300589  0.674473  0.811087  0.947700  1.203237
  1276.969971  0.301085  0.675437  0.812339  0.949241  1.203714
  1280.479980  0.303144  0.676621  0.813758  0.950895  1.206490
  1283.989990  0.302991  0.677636  0.815073  0.952510  1.210584
  1287.510010  0.304876  0.678832  0.816496  0.954161  1.213919
  1291.020020  0.302878  0.679685  0.817677  0.955669  1.215805
  1294.530029  0.307781  0.680638  0.818788  0.956937  1.219177
  1298.050049  0.306336  0.681145  0.819595  0.958046  1.218395
  1301.560059  0.308099  0.681872  0.820416  0.958961  1.220865
  1305.079956  0.306118  0.682348  0.821048  0.959749  1.219653
  1308.589966  0.306991  0.682816  0.821590  0.960363  1.220931
  1312.109985  0.304886  0.682610  0.821626  0.960642  1.222406
  1315.619995  0.306027  0.682552  0.821580  0.960609  1.221725
  1319.140015  0.305917  0.681888  0.820952  0.960015  1.220610
  1322.660034  0.305730  0.681260  0.820167  0.959074  1.217551
  1326.180054  0.302742  0.679721  0.818543  0.957365  1.215247
  1329.699951  0.304226  0.677941  0.816475  0.955010  1.209975
  1333.219971  0.301333  0.675153  0.813322  0.951490  1.208199
  1336.739990  0.300655  0.672064  0.809811  0.947558  1.198447
  1340.260010  0.297566  0.668644  0.805881  0.943119  1.191443
  1343.780029  0.294112  0.664840  0.801413  0.937987  1.181808
  1347.300049  0.290191  0.660498  0.796442  0.932385  1.175211
  1350.819946  0.288523  0.656269  0.791486  0.926703  1.168162
  1354.349976  0.283651  0.652256  0.786760  0.921264  1.164593
  1357.869995  0.282436  0.648491  0.782312  0.916134  1.154886
  1361.390015  0.279763  0.644882  0.778072  0.911263  1.148332
  1364.920044  0.278963  0.641452  0.774086  0.906720  1.140791
  1368.439941  0.275091  0.637828  0.770022  0.902216  1.134320
  1371.969971  0.269329  0.634628  0.766401  0.898175  1.124542
  1375.500000  0.270480  0.632019  0.763475  0.894931  1.118654
  1379.020020  0.271394  0.629906  0.760881  0.891857  1.111008
  1382.550049  0.267771  0.627296  0.757871  0.888446  1.105928
  1386.079956  0.265627  0.623939  0.754164  0.884390  1.098324
  1389.609985  0.261616  0.619884  0.749472  0.879059  1.089938
  1393.140015  0.257723  0.615347  0.744000  0.872653  1.082117
  1396.670044  0.252441  0.609808  0.737529  0.865251  1.068516
  1400.199951  0.251420  0.603595  0.730263  0.856932  1.059306
  1403.729980  0.243896  0.596164  0.721460  0.846755  1.045544
  1407.260010  0.240586  0.587700  0.711586  0.835472  1.034185
  1410.790039  0.235053  0.578422  0.700675  0.822927  1.018973
  1414.319946  0.229861  0.568262  0.688793  0.809324  1.001270
  1417.859985  0.223577  0.557817  0.676483  0.795149  0.984970
  1421.390015  0.214595  0.547510  0.664198  0.780885  0.962256
  1424.920044  0.208853  0.537256  0.652087  0.766919  0.943847
  1428.459961  0.204481  0.527988  0.641090  0.754191  0.929551
  1431.989990  0.199030  0.519369  0.630935  0.742501  0.915658
  1435.530029  0.195684  0.512294  0.622490  0.732685  0.903339
  1439.069946  0.190864  0.506190  0.615282  0.724373  0.892138
  1442.599976  0.189370  0.501145  0.609308  0.717471  0.881394
  1446.140015  0.187070  0.497066  0.604480  0.711894  0.872904
  1449.680054  0.184949  0.493687  0.600597  0.707507  0.870158
  1453.219971  0.183546  0.491093  0.597523  0.703952  0.863468
  1456.760010  0.182835  0.489095  0.595136  0.701178  0.863564
  1460.300049  0.182110  0.487135  0.592973  0.698811  0.860663
  1463.839966  0.179083  0.485986  0.591660  0.697334  0.860119
  1467.380005  0.180960  0.484969  0.590528  0.696088  0.857277
  1470.920044  0.177592  0.484486  0.590072  0.695657  0.857910
  1474.459961  0.178740  0.484080  0.589738  0.695395  0.857751
  1478.010010  0.178325  0.484252  0.589972  0.695692  0.861534
  1481.550049  0.181757  0.484287  0.590129  0.695970  0.861099
  1485.089966  0.179397  0.484465  0.590436  0.696408  0.863421
  1488.640015  0.179851  0.484356  0.590489  0.696621  0.861727
  1492.180054  0.176953  0.484725  0.590970  0.697215  0.867827
  1495.729980  0.179114  0.484995  0.591482  0.697968  0.863707
  1499.270020  0.176990  0.485803  0.592494  0.699185  0.866636
  1502.819946  0.180314  0.486490  0.593390  0.700290  0.868613
  1506.369995  0.178172  0.487326  0.594501  0.701676  0.871921
  1509.910034  0.181153  0.488068  0.595532  0.702996  0.872869
  1513.459961  0.181586  0.488780  0.596486  0.704193  0.876373
  1517.010010  0.178667  0.489361  0.597323  0.705284  0.881216
  1520.560059  0.179250  0.489972  0.598209  0.706447  0.880246
  1524.109985  0.180969  0.490407  0.598871  0.707336  0.882558
  1527.660034  0.180453  0.490938  0.599553  0.708167  0.883832
  1531.209961  0.176548  0.490745  0.599573  0.708400  0.884828
  1534.760010  0.179199  0.490996  0.599859  0.708722  0.885361
  1538.319946  0.177852  0.490809  0.599780  0.708751  0.884654
  1541.869995  0.177885  0.490467  0.599493  0.708520  0.885908
  1545.420044  0.179482  0.489882  0.598894  0.707907  0.885043
  1548.979980  0.177002  0.489293  0.598225  0.707156  0.883984
  1552.530029  0.176542  0.488364  0.597314  0.706264  0.885328
  1556.089966  0.176828  0.487484  0.596368  0.705252  0.882135
  1559.640015  0.174750  0.486341  0.595172  0.704003  0.880605
  1563.199951  0.175964  0.485509  0.594241  0.702973  0.878939
  1566.750000  0.171582  0.484495  0.593255  0.702014  0.878291
  1570.310059  0.174196  0.483537  0.592224  0.700911  0.877402
  1573.869995  0.169528  0.482626  0.591252  0.699878  0.875611
  1577.430054  0.173501  0.482109  0.590685  0.699261  0.873642
  1580.989990  0.169301  0.481212  0.589806  0.698400  0.874371
  1584.550049  0.171050  0.480627  0.589211  0.697795  0.873892
  1588.109985  0.171061  0.479748  0.588381  0.697013  0.874823
  1591.670044  0.171657  0.479774  0.588369  0.696965  0.871064
  1595.229980  0.168555  0.479026  0.587683  0.696340  0.871857
  1598.790039  0.171842  0.478572  0.587252  0.695932  0.867502
  1602.349976  0.169072  0.478095  0.586735  0.695376  0.868612
  1605.920044  0.169068  0.477288  0.586010  0.694732  0.860555
  1609.479980  0.167483  0.476634  0.585266  0.693899  0.861323
  1613.040039  0.167822  0.475442  0.584023  0.692605  0.856084
  1616.609985  0.165378  0.473981  0.582359  0.690737  0.846961
  1620.170044  0.165072  0.472327  0.580473  0.688618  0.848832
  1623.739990  0.163732  0.469702  0.577753  0.685804  0.842503
  1627.310059  0.160104  0.467156  0.575133  0.683110  0.840401
  1630.869995  0.162692  0.464318  0.572314  0.680311  0.839579
  1634.439941  0.159681  0.462044  0.570149  0.678254  0.837049
  1638.010010  0.159915  0.459849  0.568093  0.676338  0.836293
  1641.579956  0.158365  0.458899  0.567171  0.675443  0.833690
  1645.150024  0.159886  0.458292  0.566516  0.674740  0.832196
  1648.709961  0.153768  0.457820  0.565923  0.674027  0.830456
  1652.290039  0.156750  0.457237  0.565055  0.672874  0.829182
  1655.859985  0.155361  0.454452  0.562363  0.670273  0.823346
  1659.430054  0.154852  0.448962  0.557508  0.666054  0.822370
  1663.000000  0.150773  0.440559  0.551006  0.661454  0.815109
  1666.569946  0.151301  0.429961  0.543656  0.657351  0.809898
  1670.140015  0.144550  0.418282  0.536196  0.654110  0.803687
  1673.719971  0.145132  0.407891  0.529695  0.651499  0.802598
  1677.290039  0.141107  0.400638  0.524791  0.648943  0.795749
  1680.869995  0.144460  0.397025  0.521557  0.646090  0.799733
  1684.439941  0.139734  0.395522  0.518726  0.641931  0.787160
  1688.020020  0.140702  0.394890  0.515654  0.636419  0.783101
  1691.589966  0.135462  0.394359  0.511863  0.629368  0.772846
  1695.170044  0.142913  0.394452  0.508313  0.622173  0.765651
  1698.750000  0.143474  0.395753  0.504921  0.614089  0.753297
  1702.329956  0.143492  0.398263  0.502804  0.607345  0.747616
  1705.910034  0.130886  0.399285  0.499866  0.600448  0.727763
  1709.489990  0.150581  0.398734  0.496201  0.593667  0.726244
  1713.069946  0.141109  0.396246  0.490790  0.585333  0.711982
  1716.650024  0.154675  0.392894  0.484571  0.576248  0.711060
  1720.229980  0.138960  0.387442  0.476960  0.566477  0.687054
