ENVI ASCII Plot File [Sun Apr 06 17:32:45 2025]
Column 1: Wavelength
Column 2: Min: ROI #87~~2##255,0,0
Column 3: Mean-StdDev: ROI #87~~21##0,200,0
Column 4: Mean: ROI #87~~0##0,0,0
Column 5: Mean+StdDev: ROI #87~~21##0,200,0
Column 6: Max: ROI #87~~2##255,0,0
   935.609985  0.247354  0.421350  0.491360  0.561371  0.682885
   939.059998  0.252303  0.423582  0.493967  0.564351  0.677763
   942.520020  0.263630  0.435456  0.519352  0.603248  0.711301
   945.979980  0.239389  0.441745  0.538403  0.635061  0.767897
   949.429993  0.238865  0.446852  0.551454  0.656056  0.804731
   952.890015  0.237401  0.452798  0.561520  0.670242  0.831817
   956.349976  0.238856  0.457653  0.568593  0.679533  0.844852
   959.809998  0.241071  0.461503  0.573756  0.686009  0.858394
   963.270020  0.242178  0.465141  0.578396  0.691651  0.863936
   966.729980  0.243612  0.468267  0.582457  0.696647  0.874770
   970.190002  0.244622  0.471893  0.586792  0.701691  0.878976
   973.650024  0.246269  0.474768  0.590363  0.705958  0.886319
   977.109985  0.247710  0.477856  0.594083  0.710310  0.889885
   980.580017  0.250530  0.481084  0.597974  0.714864  0.897066
   984.039978  0.251391  0.484282  0.601726  0.719170  0.902803
   987.510010  0.250948  0.487114  0.605202  0.723291  0.908302
   990.969971  0.255119  0.490335  0.609048  0.727761  0.910707
   994.429993  0.257129  0.493472  0.612809  0.732146  0.917930
   997.900024  0.259493  0.496834  0.616673  0.736512  0.922505
  1001.369995  0.262758  0.499727  0.620223  0.740719  0.929694
  1004.830017  0.262496  0.502901  0.623938  0.744975  0.934238
  1008.299988  0.264614  0.506063  0.627688  0.749313  0.939803
  1011.770020  0.266197  0.509426  0.631576  0.753727  0.943256
  1015.239990  0.268974  0.512458  0.635190  0.757923  0.949089
  1018.710022  0.270466  0.515432  0.638763  0.762094  0.955072
  1022.179993  0.270977  0.518537  0.642450  0.766364  0.960031
  1025.650024  0.272731  0.521694  0.646176  0.770658  0.962049
  1029.119995  0.275885  0.524731  0.649791  0.774851  0.968758
  1032.589966  0.277718  0.527811  0.653416  0.779021  0.974076
  1036.060059  0.278715  0.530719  0.656828  0.782937  0.978623
  1039.530029  0.279451  0.533661  0.660356  0.787051  0.982666
  1043.000000  0.280370  0.536760  0.663988  0.791216  0.987641
  1046.479980  0.284295  0.539831  0.667587  0.795342  0.993373
  1049.949951  0.286663  0.542695  0.670983  0.799271  0.996649
  1053.430054  0.288490  0.545520  0.674355  0.803191  1.000269
  1056.900024  0.290539  0.548438  0.677806  0.807173  1.004955
  1060.380005  0.290650  0.551269  0.681182  0.811096  1.009892
  1063.849976  0.292849  0.554078  0.684525  0.814972  1.016205
  1067.329956  0.295001  0.556831  0.687825  0.818818  1.019536
  1070.810059  0.295714  0.559565  0.691034  0.822502  1.021739
  1074.290039  0.296819  0.562301  0.694259  0.826216  1.026924
  1077.760010  0.300395  0.564906  0.697399  0.829892  1.032345
  1081.239990  0.301338  0.567599  0.700589  0.833579  1.037324
  1084.719971  0.302110  0.570202  0.703677  0.837153  1.042218
  1088.199951  0.303440  0.572504  0.706500  0.840496  1.045178
  1091.680054  0.303751  0.574846  0.709308  0.843770  1.049315
  1095.170044  0.305480  0.577183  0.712114  0.847045  1.052696
  1098.650024  0.307028  0.579478  0.714825  0.850171  1.057331
  1102.130005  0.310145  0.581525  0.717303  0.853082  1.060300
  1105.609985  0.311189  0.583333  0.719546  0.855759  1.064033
  1109.099976  0.311471  0.585063  0.721651  0.858239  1.065107
  1112.579956  0.310222  0.586833  0.723837  0.860841  1.066692
  1116.069946  0.311759  0.588531  0.725961  0.863391  1.068547
  1119.550049  0.313354  0.590128  0.727959  0.865790  1.072067
  1123.040039  0.314697  0.591402  0.729667  0.867932  1.075378
  1126.520020  0.314206  0.592302  0.730989  0.869675  1.075129
  1130.010010  0.314613  0.592607  0.731756  0.870905  1.073112
  1133.500000  0.316538  0.592418  0.732029  0.871640  1.071537
  1136.989990  0.314449  0.591726  0.731971  0.872216  1.071275
  1140.469971  0.314103  0.591361  0.732156  0.872952  1.071593
  1143.959961  0.313631  0.591538  0.732739  0.873941  1.071807
  1147.449951  0.313086  0.592537  0.733895  0.875254  1.073985
  1150.939941  0.314830  0.594141  0.735437  0.876732  1.077602
  1154.430054  0.316631  0.596083  0.737029  0.877975  1.079251
  1157.930054  0.317401  0.597349  0.738036  0.878723  1.085320
  1161.420044  0.318553  0.598082  0.738492  0.878902  1.084983
  1164.910034  0.316500  0.598068  0.738406  0.878744  1.086447
  1168.400024  0.317321  0.598120  0.738350  0.878580  1.085624
  1171.900024  0.316501  0.598035  0.738285  0.878535  1.087472
  1175.390015  0.318229  0.598169  0.738363  0.878557  1.087725
  1178.890015  0.316533  0.598067  0.738315  0.878564  1.089697
  1182.380005  0.317130  0.598085  0.738416  0.878747  1.088579
  1185.880005  0.316390  0.598454  0.738909  0.879364  1.090337
  1189.369995  0.317452  0.599192  0.739910  0.880627  1.089484
  1192.869995  0.319421  0.600223  0.741399  0.882575  1.094782
  1196.369995  0.319509  0.601792  0.743326  0.884860  1.097585
  1199.869995  0.318499  0.603258  0.745315  0.887372  1.099092
  1203.369995  0.321889  0.604957  0.747438  0.889919  1.097901
  1206.869995  0.322401  0.606590  0.749447  0.892304  1.102781
  1210.369995  0.322857  0.608474  0.751759  0.895044  1.108282
  1213.869995  0.324609  0.610771  0.754463  0.898155  1.111111
  1217.369995  0.327636  0.613434  0.757582  0.901730  1.117552
  1220.869995  0.328215  0.616222  0.760840  0.905459  1.121123
  1224.369995  0.329085  0.619086  0.764173  0.909261  1.125572
  1227.869995  0.329288  0.621921  0.767502  0.913082  1.129647
  1231.380005  0.334833  0.624677  0.770728  0.916779  1.136479
  1234.880005  0.333000  0.627194  0.773662  0.920129  1.140468
  1238.390015  0.334532  0.629540  0.776444  0.923348  1.144335
  1241.890015  0.334367  0.631654  0.778969  0.926285  1.147269
  1245.400024  0.338101  0.633582  0.781301  0.929020  1.151868
  1248.900024  0.338016  0.635461  0.783597  0.931734  1.155837
  1252.410034  0.340030  0.637281  0.785846  0.934410  1.158902
  1255.920044  0.341343  0.638947  0.787805  0.936663  1.158846
  1259.420044  0.340956  0.640411  0.789616  0.938822  1.165411
  1262.930054  0.342372  0.641890  0.791438  0.940987  1.167941
  1266.439941  0.342085  0.643363  0.793204  0.943046  1.172655
  1269.949951  0.344028  0.644685  0.794852  0.945019  1.173302
  1273.459961  0.343861  0.646031  0.796528  0.947025  1.173454
  1276.969971  0.341014  0.647197  0.798077  0.948957  1.176894
  1280.479980  0.341652  0.648704  0.799893  0.951081  1.180207
  1283.989990  0.344050  0.649975  0.801548  0.953121  1.184631
  1287.510010  0.348682  0.651376  0.803255  0.955134  1.187297
  1291.020020  0.347305  0.652645  0.804843  0.957042  1.187563
  1294.530029  0.347409  0.653864  0.806331  0.958798  1.191240
  1298.050049  0.346894  0.654808  0.807698  0.960589  1.195382
  1301.560059  0.349360  0.655937  0.809084  0.962231  1.199275
  1305.079956  0.346692  0.656747  0.810153  0.963558  1.199905
  1308.589966  0.351156  0.657531  0.811119  0.964708  1.198882
  1312.109985  0.348825  0.658041  0.811877  0.965713  1.198698
  1315.619995  0.350485  0.658412  0.812326  0.966240  1.202892
  1319.140015  0.348052  0.658190  0.812360  0.966530  1.206213
  1322.660034  0.347442  0.658253  0.812323  0.966393  1.203427
  1326.180054  0.349562  0.657373  0.811528  0.965684  1.201495
  1329.699951  0.348746  0.656200  0.810208  0.964216  1.199224
  1333.219971  0.342740  0.654124  0.807999  0.961874  1.198188
  1336.739990  0.346716  0.651885  0.805397  0.958910  1.191912
  1340.260010  0.342851  0.648949  0.802190  0.955430  1.189910
  1343.780029  0.340774  0.645861  0.798627  0.951393  1.186337
  1347.300049  0.338381  0.642168  0.794487  0.946805  1.181904
  1350.819946  0.337548  0.638509  0.790139  0.941770  1.175447
  1354.349976  0.335795  0.634898  0.785968  0.937039  1.170679
  1357.869995  0.331452  0.631593  0.782168  0.932742  1.164543
  1361.390015  0.332370  0.628484  0.778628  0.928772  1.163242
  1364.920044  0.325838  0.625555  0.775375  0.925195  1.158092
  1368.439941  0.326917  0.622619  0.772144  0.921670  1.156998
  1371.969971  0.323410  0.620092  0.769414  0.918736  1.149738
  1375.500000  0.323306  0.617942  0.767150  0.916359  1.147922
  1379.020020  0.321240  0.615952  0.764796  0.913640  1.145957
  1382.550049  0.321852  0.613767  0.762254  0.910740  1.142274
  1386.079956  0.316511  0.610902  0.759214  0.907526  1.138133
  1389.609985  0.315034  0.607434  0.755388  0.903341  1.135839
  1393.140015  0.311819  0.603521  0.750783  0.898046  1.129535
  1396.670044  0.309943  0.598557  0.745082  0.891607  1.121797
  1400.199951  0.307806  0.593037  0.738552  0.884067  1.110260
  1403.729980  0.302628  0.586154  0.730522  0.874891  1.100608
  1407.260010  0.294492  0.577913  0.721062  0.864211  1.091456
  1410.790039  0.292925  0.568908  0.710548  0.852187  1.075272
  1414.319946  0.285461  0.559059  0.699166  0.839273  1.057945
  1417.859985  0.279772  0.548918  0.687157  0.825395  1.043375
  1421.390015  0.272285  0.538722  0.675045  0.811368  1.027221
  1424.920044  0.269334  0.528373  0.662858  0.797343  1.008490
  1428.459961  0.259914  0.519049  0.651815  0.784580  0.998325
  1431.989990  0.254727  0.510612  0.641732  0.772852  0.979622
  1435.530029  0.252000  0.503481  0.633361  0.763241  0.971741
  1439.069946  0.247651  0.497775  0.626518  0.755261  0.959335
  1442.599976  0.243746  0.493047  0.620955  0.748862  0.954940
  1446.140015  0.243294  0.489561  0.616734  0.743907  0.947019
  1449.680054  0.244766  0.486792  0.613502  0.740211  0.948776
  1453.219971  0.238548  0.484815  0.611179  0.737542  0.942353
  1456.760010  0.238771  0.483522  0.609653  0.735783  0.945791
  1460.300049  0.237618  0.482266  0.608298  0.734330  0.942437
  1463.839966  0.238800  0.481731  0.607717  0.733702  0.943785
  1467.380005  0.236419  0.481428  0.607426  0.733425  0.943118
  1470.920044  0.238181  0.481493  0.607635  0.733778  0.944571
  1474.459961  0.237127  0.481388  0.607750  0.734113  0.943850
  1478.010010  0.239180  0.481840  0.608345  0.734850  0.948809
  1481.550049  0.235100  0.482094  0.608799  0.735503  0.947281
  1485.089966  0.238933  0.482520  0.609372  0.736223  0.949028
  1488.640015  0.236612  0.482501  0.609666  0.736832  0.950609
  1492.180054  0.236872  0.483173  0.610478  0.737783  0.956234
  1495.729980  0.235884  0.483609  0.611217  0.738824  0.954949
  1499.270020  0.238454  0.484704  0.612499  0.740295  0.960075
  1502.819946  0.236680  0.485545  0.613746  0.741947  0.962802
  1506.369995  0.235578  0.486642  0.615108  0.743575  0.963294
  1509.910034  0.240419  0.487675  0.616566  0.745457  0.967147
  1513.459961  0.240604  0.488913  0.618111  0.747310  0.967649
  1517.010010  0.238949  0.489763  0.619392  0.749021  0.973163
  1520.560059  0.238690  0.490713  0.620708  0.750703  0.974569
  1524.109985  0.240756  0.491379  0.621683  0.751987  0.977902
  1527.660034  0.239765  0.492097  0.622595  0.753094  0.977491
  1531.209961  0.239388  0.492196  0.622999  0.753801  0.981158
  1534.760010  0.238099  0.492694  0.623555  0.754416  0.976223
  1538.319946  0.243360  0.492373  0.623459  0.754546  0.982817
  1541.869995  0.239311  0.492531  0.623601  0.754670  0.979581
  1545.420044  0.240655  0.492004  0.623186  0.754369  0.983780
  1548.979980  0.236745  0.491543  0.622713  0.753884  0.983192
  1552.530029  0.240168  0.490694  0.621980  0.753267  0.982186
  1556.089966  0.234705  0.490007  0.621270  0.752533  0.978478
  1559.640015  0.238113  0.489048  0.620301  0.751554  0.983741
  1563.199951  0.235713  0.488323  0.619607  0.750891  0.982629
  1566.750000  0.236736  0.487271  0.618534  0.749796  0.979074
  1570.310059  0.234064  0.486545  0.617793  0.749041  0.975690
  1573.869995  0.233629  0.485765  0.617048  0.748331  0.976197
  1577.430054  0.230073  0.485301  0.616600  0.747899  0.976595
  1580.989990  0.231139  0.484576  0.615950  0.747324  0.977346
  1584.550049  0.228545  0.484085  0.615521  0.746957  0.978196
  1588.109985  0.230607  0.483497  0.615031  0.746566  0.976181
  1591.670044  0.227084  0.483492  0.615055  0.746619  0.976024
  1595.229980  0.232087  0.482885  0.614507  0.746129  0.973407
  1598.790039  0.226619  0.482453  0.614194  0.745934  0.973465
  1602.349976  0.225380  0.482075  0.613815  0.745556  0.973022
  1605.920044  0.226255  0.481335  0.613214  0.745094  0.976347
  1609.479980  0.223946  0.480648  0.612506  0.744364  0.968211
  1613.040039  0.223308  0.479279  0.611208  0.743137  0.969260
  1616.609985  0.222822  0.477675  0.609497  0.741318  0.964384
  1620.170044  0.221604  0.475749  0.607546  0.739343  0.958069
  1623.739990  0.220009  0.473032  0.604908  0.736785  0.954029
  1627.310059  0.217751  0.470307  0.602257  0.734207  0.954842
  1630.869995  0.216920  0.467477  0.599493  0.731510  0.947935
  1634.439941  0.210617  0.465546  0.597690  0.729833  0.946131
  1638.010010  0.214486  0.463942  0.596293  0.728643  0.941690
  1641.579956  0.213408  0.463322  0.595815  0.728308  0.943112
  1645.150024  0.209074  0.462723  0.595290  0.727856  0.941037
  1648.709961  0.209355  0.462139  0.594665  0.727191  0.943006
  1652.290039  0.209432  0.461516  0.593729  0.725941  0.941390
  1655.859985  0.206152  0.458848  0.591078  0.723309  0.934954
  1659.430054  0.203426  0.453996  0.586474  0.718951  0.924530
  1663.000000  0.201704  0.447191  0.580484  0.713777  0.915991
  1666.569946  0.197838  0.438996  0.573452  0.707909  0.900658
  1670.140015  0.194508  0.430507  0.566202  0.701896  0.892231
  1673.719971  0.187389  0.422884  0.559770  0.696657  0.881317
  1677.290039  0.174906  0.417456  0.554925  0.692395  0.873135
  1680.869995  0.173318  0.414383  0.551741  0.689099  0.865828
  1684.439941  0.174703  0.412891  0.549166  0.685440  0.861843
  1688.020020  0.175748  0.411468  0.546074  0.680679  0.856335
  1691.589966  0.182478  0.409355  0.541664  0.673973  0.852410
  1695.170044  0.182917  0.407816  0.537519  0.667223  0.839343
  1698.750000  0.181692  0.406190  0.532522  0.658855  0.822521
  1702.329956  0.185556  0.405656  0.528180  0.650704  0.813910
  1705.910034  0.192407  0.404562  0.523268  0.641975  0.800508
  1709.489990  0.189217  0.401547  0.517249  0.632952  0.803267
  1713.069946  0.183093  0.398759  0.510670  0.622582  0.770450
  1716.650024  0.180687  0.395289  0.503207  0.611125  0.754650
  1720.229980  0.180687  0.391584  0.495040  0.598496  0.730957
