ENVI ASCII Plot File [Sun Apr 06 17:27:24 2025]
Column 1: Wavelength
Column 2: Min: ROI #81~~2##255,0,0
Column 3: Mean-StdDev: ROI #81~~21##0,200,0
Column 4: Mean: ROI #81~~0##0,0,0
Column 5: Mean+StdDev: ROI #81~~21##0,200,0
Column 6: Max: ROI #81~~2##255,0,0
   935.609985  0.197273  0.365002  0.420126  0.475250  0.588847
   939.059998  0.201742  0.367200  0.421851  0.476502  0.590856
   942.520020  0.204236  0.377326  0.440571  0.503816  0.626969
   945.979980  0.208039  0.382623  0.454585  0.526547  0.647972
   949.429993  0.214847  0.387381  0.465373  0.543365  0.685732
   952.890015  0.209817  0.392913  0.473910  0.554908  0.704858
   956.349976  0.211315  0.397304  0.480311  0.563318  0.718413
   959.809998  0.220111  0.401120  0.485172  0.569224  0.727334
   963.270020  0.217016  0.404749  0.489747  0.574746  0.739529
   966.729980  0.221336  0.407910  0.493598  0.579287  0.741749
   970.190002  0.223215  0.411406  0.497796  0.584185  0.753182
   973.650024  0.226778  0.414254  0.501203  0.588151  0.757323
   977.109985  0.229585  0.417298  0.504868  0.592438  0.765533
   980.580017  0.232808  0.420563  0.508685  0.596807  0.770554
   984.039978  0.232682  0.423537  0.512276  0.601016  0.778621
   987.510010  0.239015  0.426498  0.515725  0.604952  0.778752
   990.969971  0.238498  0.429501  0.519384  0.609267  0.786567
   994.429993  0.242276  0.432666  0.523077  0.613488  0.790385
   997.900024  0.244150  0.435988  0.526989  0.617990  0.799155
  1001.369995  0.246740  0.438807  0.530359  0.621911  0.802151
  1004.830017  0.247932  0.441890  0.534008  0.626127  0.810123
  1008.299988  0.250819  0.444993  0.537660  0.630327  0.812664
  1011.770020  0.253260  0.448286  0.541542  0.634799  0.818941
  1015.239990  0.256480  0.451373  0.545149  0.638925  0.822123
  1018.710022  0.257080  0.454315  0.548618  0.642921  0.827524
  1022.179993  0.260923  0.457385  0.552254  0.647122  0.834543
  1025.650024  0.263596  0.460511  0.555963  0.651415  0.841893
  1029.119995  0.264898  0.463500  0.559495  0.655490  0.846871
  1032.589966  0.268525  0.466518  0.563026  0.659533  0.851687
  1036.060059  0.271924  0.469418  0.566443  0.663468  0.856479
  1039.530029  0.272647  0.472365  0.569943  0.667521  0.861878
  1043.000000  0.273204  0.475367  0.573510  0.671653  0.866295
  1046.479980  0.274289  0.478469  0.577093  0.675716  0.871485
  1049.949951  0.278087  0.481369  0.580506  0.679644  0.877901
  1053.430054  0.281634  0.484168  0.583824  0.683479  0.881417
  1056.900024  0.283207  0.487003  0.587208  0.687412  0.886816
  1060.380005  0.284829  0.489859  0.590565  0.691270  0.892200
  1063.849976  0.286899  0.492636  0.593880  0.695124  0.897597
  1067.329956  0.290106  0.495378  0.597142  0.698905  0.903940
  1070.810059  0.292798  0.498197  0.600447  0.702697  0.909232
  1074.290039  0.293846  0.500995  0.603773  0.706551  0.912682
  1077.760010  0.295174  0.503642  0.606933  0.710224  0.916479
  1081.239990  0.297790  0.506323  0.610107  0.713891  0.920113
  1084.719971  0.300171  0.508952  0.613241  0.717531  0.925024
  1088.199951  0.301527  0.511473  0.616233  0.720994  0.930099
  1091.680054  0.303749  0.513924  0.619157  0.724390  0.934727
  1095.170044  0.304992  0.516374  0.622102  0.727830  0.940987
  1098.650024  0.306332  0.518833  0.625015  0.731198  0.944257
  1102.130005  0.308265  0.521092  0.627734  0.734375  0.945912
  1105.609985  0.308444  0.523277  0.630341  0.737405  0.949010
  1109.099976  0.311056  0.525284  0.632771  0.740258  0.950630
  1112.579956  0.310870  0.527346  0.635242  0.743137  0.954429
  1116.069946  0.312875  0.529345  0.637692  0.746039  0.957796
  1119.550049  0.315186  0.531378  0.640145  0.748913  0.957493
  1123.040039  0.314721  0.533147  0.642334  0.751522  0.957161
  1126.520020  0.316865  0.534702  0.644214  0.753727  0.953166
  1130.010010  0.318505  0.535758  0.645650  0.755542  0.945996
  1133.500000  0.318736  0.536542  0.646770  0.756998  0.933177
  1136.989990  0.316278  0.536855  0.647449  0.758043  0.918384
  1140.469971  0.315775  0.537508  0.648529  0.759550  0.921092
  1143.959961  0.316687  0.538365  0.649761  0.761158  0.922125
  1147.449951  0.318594  0.539729  0.651432  0.763135  0.924017
  1150.939941  0.317947  0.541479  0.653392  0.765306  0.925978
  1154.430054  0.319703  0.543469  0.655473  0.767477  0.938088
  1157.930054  0.320882  0.544979  0.657094  0.769208  0.954970
  1161.420044  0.324737  0.546235  0.658419  0.770603  0.969199
  1164.910034  0.323951  0.546793  0.659100  0.771407  0.975250
  1168.400024  0.323247  0.547417  0.659839  0.772261  0.981050
  1171.900024  0.324161  0.548054  0.660553  0.773053  0.981155
  1175.390015  0.325900  0.548601  0.661269  0.773936  0.985620
  1178.890015  0.324762  0.549132  0.661900  0.774668  0.986886
  1182.380005  0.327630  0.549663  0.662572  0.775481  0.987375
  1185.880005  0.328373  0.550296  0.663373  0.776451  0.983791
  1189.369995  0.327380  0.551194  0.664544  0.777895  0.985570
  1192.869995  0.327007  0.552409  0.666102  0.779795  0.985894
  1196.369995  0.328041  0.553944  0.668038  0.782132  0.986138
  1199.869995  0.331334  0.555513  0.669994  0.784475  0.986306
  1203.369995  0.330552  0.557191  0.672074  0.786957  0.987092
  1206.869995  0.331545  0.558836  0.674117  0.789398  0.988331
  1210.369995  0.334852  0.560737  0.676425  0.792112  0.993178
  1213.869995  0.334595  0.562976  0.679111  0.795245  0.998568
  1217.369995  0.337357  0.565559  0.682131  0.798702  1.008166
  1220.869995  0.338236  0.568140  0.685280  0.802420  1.016441
  1224.369995  0.340444  0.570879  0.688529  0.806180  1.023433
  1227.869995  0.342506  0.573599  0.691776  0.809953  1.030968
  1231.380005  0.345052  0.576329  0.694987  0.813645  1.037234
  1234.880005  0.346688  0.578708  0.697932  0.817155  1.044863
  1238.390015  0.347077  0.581149  0.700813  0.820476  1.051227
  1241.890015  0.350227  0.583315  0.703479  0.823642  1.056918
  1245.400024  0.348920  0.585370  0.705928  0.826487  1.060400
  1248.900024  0.351815  0.587300  0.708376  0.829452  1.067003
  1252.410034  0.351682  0.589335  0.710753  0.832171  1.068823
  1255.920044  0.351404  0.591133  0.713012  0.834890  1.075617
  1259.420044  0.355031  0.592802  0.715017  0.837231  1.077351
  1262.930054  0.356299  0.594462  0.717093  0.839725  1.082469
  1266.439941  0.357253  0.596227  0.719157  0.842087  1.083903
  1269.949951  0.355777  0.597643  0.721041  0.844439  1.088088
  1273.459961  0.358024  0.599372  0.723086  0.846799  1.090980
  1276.969971  0.358999  0.600870  0.725033  0.849196  1.096640
  1280.479980  0.361179  0.602671  0.727160  0.851648  1.098334
  1283.989990  0.360222  0.603974  0.728892  0.853809  1.103442
  1287.510010  0.361430  0.605755  0.730951  0.856146  1.108583
  1291.020020  0.361941  0.607002  0.732678  0.858354  1.109592
  1294.530029  0.364012  0.608595  0.734538  0.860481  1.110129
  1298.050049  0.364070  0.609730  0.736070  0.862411  1.112877
  1301.560059  0.366636  0.611204  0.737854  0.864503  1.112460
  1305.079956  0.368549  0.612367  0.739328  0.866288  1.115854
  1308.589966  0.366606  0.613603  0.740823  0.868044  1.121692
  1312.109985  0.364606  0.614421  0.741935  0.869449  1.119620
  1315.619995  0.367769  0.615217  0.742987  0.870757  1.122685
  1319.140015  0.369475  0.615526  0.743498  0.871471  1.120950
  1322.660034  0.369587  0.616230  0.744300  0.872369  1.123641
  1326.180054  0.370027  0.616146  0.744432  0.872717  1.124970
  1329.699951  0.369699  0.616016  0.744319  0.872622  1.125164
  1333.219971  0.365609  0.614985  0.743296  0.871607  1.123700
  1336.739990  0.366414  0.613822  0.742041  0.870259  1.119858
  1340.260010  0.366383  0.612136  0.740176  0.868216  1.113608
  1343.780029  0.366159  0.610332  0.738155  0.865977  1.114077
  1347.300049  0.360179  0.607838  0.735338  0.862837  1.110135
  1350.819946  0.358153  0.605187  0.732360  0.859534  1.102608
  1354.349976  0.360615  0.602709  0.729378  0.856048  1.099653
  1357.869995  0.353991  0.600170  0.726506  0.852842  1.099908
  1361.390015  0.354367  0.597876  0.723826  0.849777  1.094101
  1364.920044  0.351134  0.595713  0.721477  0.847242  1.089713
  1368.439941  0.351115  0.593504  0.719041  0.844578  1.083359
  1371.969971  0.348394  0.591764  0.717201  0.842638  1.082711
  1375.500000  0.349228  0.590239  0.715636  0.841033  1.073839
  1379.020020  0.348514  0.589080  0.714179  0.839279  1.071405
  1382.550049  0.345634  0.587516  0.712317  0.837118  1.064954
  1386.079956  0.344174  0.585369  0.710164  0.834959  1.064025
  1389.609985  0.342130  0.582849  0.707375  0.831902  1.057804
  1393.140015  0.339909  0.580142  0.704105  0.828068  1.051947
  1396.670044  0.336918  0.576235  0.699656  0.823076  1.043936
  1400.199951  0.331296  0.571946  0.694603  0.817261  1.036837
  1403.729980  0.330155  0.566282  0.688064  0.809845  1.025362
  1407.260010  0.324138  0.559200  0.679861  0.800523  1.014011
  1410.790039  0.319398  0.551128  0.670519  0.789911  0.999111
  1414.319946  0.309457  0.541955  0.659833  0.777710  0.980394
  1417.859985  0.307575  0.532412  0.648614  0.764815  0.970424
  1421.390015  0.297888  0.522582  0.636913  0.751245  0.954624
  1424.920044  0.290900  0.512469  0.625086  0.737702  0.941094
  1428.459961  0.284909  0.503271  0.614151  0.725030  0.924286
  1431.989990  0.273885  0.494824  0.604284  0.713743  0.912859
  1435.530029  0.271390  0.487897  0.596000  0.704102  0.899808
  1439.069946  0.266063  0.482330  0.589460  0.696590  0.890420
  1442.599976  0.264516  0.477857  0.584230  0.690604  0.880562
  1446.140015  0.260700  0.474688  0.580501  0.686315  0.878390
  1449.680054  0.259698  0.472131  0.577581  0.683031  0.876477
  1453.219971  0.255621  0.470394  0.575690  0.680986  0.878439
  1456.760010  0.255014  0.469609  0.574747  0.679885  0.878183
  1460.300049  0.254459  0.468639  0.573832  0.679026  0.876618
  1463.839966  0.257123  0.468575  0.573774  0.678973  0.875768
  1467.380005  0.252641  0.468602  0.573962  0.679323  0.876807
  1470.920044  0.254552  0.469065  0.574614  0.680164  0.875991
  1474.459961  0.255386  0.469211  0.575010  0.680808  0.880107
  1478.010010  0.255813  0.470072  0.576077  0.682082  0.881417
  1481.550049  0.255459  0.470583  0.576895  0.683206  0.884878
  1485.089966  0.258062  0.471402  0.577919  0.684436  0.885032
  1488.640015  0.255516  0.471797  0.578647  0.685497  0.886625
  1492.180054  0.259153  0.472751  0.579866  0.686982  0.887819
  1495.729980  0.256590  0.473554  0.581027  0.688499  0.890952
  1499.270020  0.258713  0.474865  0.582624  0.690383  0.893649
  1502.819946  0.257587  0.475986  0.584148  0.692311  0.895156
  1506.369995  0.258980  0.477236  0.585806  0.694376  0.903354
  1509.910034  0.260851  0.478444  0.587343  0.696242  0.906194
  1513.459961  0.259734  0.479839  0.589150  0.698461  0.908882
  1517.010010  0.262557  0.480916  0.590572  0.700228  0.907416
  1520.560059  0.258200  0.481912  0.591997  0.702082  0.913394
  1524.109985  0.259459  0.482592  0.593011  0.703431  0.913210
  1527.660034  0.261822  0.483370  0.594059  0.704747  0.919802
  1531.209961  0.262064  0.483638  0.594513  0.705389  0.919825
  1534.760010  0.260233  0.484079  0.595135  0.706192  0.923560
  1538.319946  0.264252  0.483881  0.595090  0.706299  0.923327
  1541.869995  0.259317  0.483787  0.595162  0.706537  0.923958
  1545.420044  0.261917  0.483427  0.594810  0.706192  0.923500
  1548.979980  0.262023  0.482926  0.594384  0.705843  0.924211
  1552.530029  0.261914  0.482313  0.593766  0.705219  0.922777
  1556.089966  0.258557  0.481639  0.593147  0.704655  0.923402
  1559.640015  0.260979  0.480747  0.592225  0.703702  0.919226
  1563.199951  0.255027  0.480126  0.591654  0.703182  0.922150
  1566.750000  0.257935  0.479321  0.590826  0.702330  0.919819
  1570.310059  0.253155  0.478615  0.590163  0.701711  0.919089
  1573.869995  0.258036  0.478004  0.589603  0.701201  0.916987
  1577.430054  0.253616  0.477643  0.589292  0.700941  0.915390
  1580.989990  0.254870  0.477182  0.588890  0.700598  0.911071
  1584.550049  0.252498  0.476828  0.588627  0.700426  0.911955
  1588.109985  0.252554  0.476497  0.588443  0.700388  0.910270
  1591.670044  0.253577  0.476673  0.588681  0.700689  0.911744
  1595.229980  0.252293  0.476324  0.588409  0.700495  0.912686
  1598.790039  0.251632  0.476310  0.588487  0.700664  0.907142
  1602.349976  0.250388  0.476007  0.588367  0.700727  0.907360
  1605.920044  0.251164  0.475793  0.588191  0.700589  0.904908
  1609.479980  0.251742  0.475364  0.587822  0.700279  0.904661
  1613.040039  0.251303  0.474472  0.586937  0.699401  0.900781
  1616.609985  0.248543  0.473396  0.585886  0.698376  0.889968
  1620.170044  0.248335  0.472082  0.584461  0.696840  0.876731
  1623.739990  0.244102  0.470140  0.582569  0.694998  0.857324
  1627.310059  0.244272  0.468270  0.580615  0.692961  0.846552
  1630.869995  0.239770  0.466366  0.578839  0.691312  0.839816
  1634.439941  0.238912  0.465168  0.577679  0.690190  0.837673
  1638.010010  0.236392  0.464353  0.577167  0.689980  0.838386
  1641.579956  0.237418  0.464381  0.577337  0.690293  0.836804
  1645.150024  0.235671  0.464292  0.577509  0.690727  0.837952
  1648.709961  0.237595  0.464140  0.577410  0.690679  0.838874
  1652.290039  0.236682  0.463943  0.577131  0.690319  0.836165
  1655.859985  0.232198  0.462109  0.575200  0.688291  0.837455
  1659.430054  0.228341  0.458336  0.571539  0.684742  0.832340
  1663.000000  0.218490  0.452582  0.566220  0.679859  0.827710
  1666.569946  0.203693  0.445423  0.559871  0.674319  0.819037
  1670.140015  0.182798  0.437770  0.553230  0.668690  0.815357
  1673.719971  0.160653  0.430478  0.546930  0.663381  0.810536
  1677.290039  0.153393  0.424953  0.541904  0.658855  0.804295
  1680.869995  0.148963  0.421276  0.537967  0.654657  0.792714
  1684.439941  0.156166  0.419058  0.534769  0.650480  0.793700
  1688.020020  0.157760  0.416757  0.530761  0.644765  0.780865
  1691.589966  0.174552  0.413901  0.525841  0.637780  0.777853
  1695.170044  0.175406  0.411145  0.520571  0.629997  0.765218
  1698.750000  0.182765  0.408131  0.514553  0.620974  0.755296
  1702.329956  0.189696  0.406259  0.509265  0.612271  0.749355
  1705.910034  0.182609  0.403993  0.503970  0.603948  0.739311
  1709.489990  0.199969  0.400975  0.497918  0.594860  0.726231
  1713.069946  0.188486  0.396487  0.490565  0.584642  0.722703
  1716.650024  0.191636  0.391940  0.482360  0.572781  0.696383
  1720.229980  0.196413  0.386250  0.473682  0.561113  0.692430
