ENVI ASCII Plot File [Sun Apr 06 17:23:41 2025]
Column 1: Wavelength
Column 2: Min: ROI #78~~2##255,0,0
Column 3: Mean-StdDev: ROI #78~~21##0,200,0
Column 4: Mean: ROI #78~~0##0,0,0
Column 5: Mean+StdDev: ROI #78~~21##0,200,0
Column 6: Max: ROI #78~~2##255,0,0
   935.609985  0.164877  0.396190  0.475399  0.554608  0.686290
   939.059998  0.173919  0.397925  0.477682  0.557440  0.690787
   942.520020  0.184874  0.404862  0.499866  0.594870  0.716726
   945.979980  0.164958  0.409035  0.517336  0.625638  0.768316
   949.429993  0.159784  0.412740  0.529621  0.646501  0.800078
   952.890015  0.151425  0.417675  0.538973  0.660271  0.817435
   956.349976  0.143099  0.421987  0.545908  0.669828  0.833220
   959.809998  0.146169  0.425522  0.550904  0.676286  0.843132
   963.270020  0.141323  0.428874  0.555434  0.681995  0.848748
   966.729980  0.143623  0.431956  0.559470  0.686983  0.861238
   970.190002  0.144840  0.435428  0.563740  0.692052  0.867137
   973.650024  0.145306  0.438009  0.567133  0.696257  0.870998
   977.109985  0.145925  0.440899  0.570812  0.700725  0.879934
   980.580017  0.149587  0.443938  0.574587  0.705235  0.889112
   984.039978  0.149732  0.446757  0.578167  0.709577  0.894691
   987.510010  0.151302  0.449548  0.581591  0.713634  0.901500
   990.969971  0.152589  0.452426  0.585251  0.718076  0.903984
   994.429993  0.155555  0.455321  0.588874  0.722427  0.912489
   997.900024  0.156619  0.458420  0.592723  0.727026  0.917826
  1001.369995  0.156500  0.461087  0.596109  0.731130  0.927076
  1004.830017  0.157214  0.464051  0.599742  0.735433  0.930206
  1008.299988  0.159937  0.467011  0.603369  0.739726  0.936419
  1011.770020  0.162453  0.470097  0.607138  0.744179  0.941578
  1015.239990  0.164939  0.472881  0.610618  0.748354  0.947853
  1018.710022  0.166891  0.475649  0.614093  0.752538  0.953498
  1022.179993  0.168596  0.478577  0.617677  0.756776  0.960626
  1025.650024  0.170676  0.481464  0.621266  0.761069  0.968821
  1029.119995  0.172212  0.484203  0.624696  0.765188  0.974188
  1032.589966  0.174754  0.487111  0.628247  0.769383  0.980197
  1036.060059  0.176744  0.489793  0.631579  0.773366  0.986045
  1039.530029  0.177183  0.492503  0.634996  0.777488  0.990833
  1043.000000  0.178176  0.495333  0.638472  0.781611  0.997825
  1046.479980  0.180507  0.498213  0.641953  0.785693  1.002842
  1049.949951  0.182861  0.500877  0.645243  0.789609  1.007971
  1053.430054  0.184531  0.503491  0.648508  0.793524  1.013975
  1056.900024  0.185420  0.506175  0.651854  0.797534  1.020210
  1060.380005  0.189089  0.508873  0.655148  0.801424  1.026372
  1063.849976  0.190807  0.511451  0.658375  0.805299  1.032562
  1067.329956  0.189850  0.513994  0.661560  0.809125  1.039298
  1070.810059  0.192513  0.516565  0.664679  0.812794  1.041891
  1074.290039  0.194711  0.519144  0.667832  0.816521  1.047598
  1077.760010  0.195511  0.521626  0.670924  0.820222  1.053845
  1081.239990  0.197753  0.524157  0.674061  0.823965  1.058941
  1084.719971  0.200284  0.526600  0.677099  0.827598  1.063569
  1088.199951  0.203065  0.528853  0.679884  0.830914  1.066805
  1091.680054  0.204713  0.531027  0.682610  0.834192  1.072393
  1095.170044  0.205738  0.533201  0.685366  0.837530  1.078033
  1098.650024  0.207318  0.535406  0.688058  0.840710  1.080719
  1102.130005  0.210191  0.537333  0.690513  0.843694  1.085653
  1105.609985  0.211353  0.539140  0.692844  0.846547  1.091315
  1109.099976  0.212032  0.540898  0.695071  0.849244  1.094829
  1112.579956  0.212364  0.542690  0.697363  0.852035  1.096772
  1116.069946  0.212534  0.544365  0.699552  0.854739  1.099584
  1119.550049  0.212081  0.545973  0.701605  0.857238  1.097937
  1123.040039  0.213121  0.547366  0.703448  0.859530  1.095950
  1126.520020  0.211995  0.548587  0.705038  0.861490  1.088605
  1130.010010  0.210675  0.549201  0.706040  0.862878  1.077375
  1133.500000  0.208426  0.549476  0.706609  0.863741  1.063531
  1136.989990  0.206224  0.549363  0.706860  0.864356  1.065360
  1140.469971  0.201489  0.549504  0.707320  0.865135  1.068604
  1143.959961  0.203828  0.549959  0.708090  0.866221  1.070947
  1147.449951  0.205726  0.550985  0.709390  0.867794  1.072909
  1150.939941  0.208272  0.552483  0.711112  0.869741  1.074481
  1154.430054  0.210844  0.554133  0.712821  0.871508  1.074996
  1157.930054  0.213608  0.555224  0.713999  0.872774  1.084363
  1161.420044  0.213506  0.555937  0.714731  0.873526  1.098840
  1164.910034  0.216889  0.556143  0.714968  0.873793  1.108041
  1168.400024  0.218162  0.556282  0.715103  0.873923  1.112730
  1171.900024  0.219396  0.556405  0.715236  0.874067  1.116797
  1175.390015  0.216488  0.556511  0.715411  0.874311  1.117643
  1178.890015  0.217838  0.556551  0.715505  0.874459  1.117176
  1182.380005  0.217180  0.556734  0.715769  0.874804  1.117099
  1185.880005  0.217079  0.557094  0.716279  0.875465  1.116200
  1189.369995  0.216220  0.557889  0.717349  0.876809  1.112562
  1192.869995  0.216803  0.559015  0.718844  0.878672  1.112684
  1196.369995  0.216879  0.560542  0.720794  0.881046  1.113979
  1199.869995  0.215324  0.561980  0.722719  0.883457  1.116096
  1203.369995  0.217529  0.563567  0.724819  0.886070  1.113315
  1206.869995  0.216230  0.565240  0.726934  0.888628  1.114852
  1210.369995  0.217998  0.567012  0.729140  0.891267  1.119357
  1213.869995  0.218104  0.569093  0.731733  0.894373  1.127848
  1217.369995  0.222067  0.571482  0.734705  0.897928  1.138775
  1220.869995  0.222145  0.573867  0.737701  0.901535  1.147861
  1224.369995  0.224692  0.576275  0.740666  0.905058  1.156635
  1227.869995  0.223795  0.578812  0.743782  0.908751  1.164828
  1231.380005  0.228317  0.581268  0.746809  0.912350  1.172331
  1234.880005  0.228744  0.583504  0.749595  0.915687  1.179983
  1238.390015  0.230610  0.585759  0.752308  0.918857  1.186424
  1241.890015  0.231273  0.587651  0.754693  0.921734  1.192033
  1245.400024  0.233075  0.589478  0.756965  0.924452  1.202519
  1248.900024  0.232337  0.591161  0.759172  0.927184  1.207356
  1252.410034  0.234079  0.592927  0.761324  0.929721  1.208627
  1255.920044  0.235108  0.594464  0.763284  0.932103  1.212668
  1259.420044  0.235856  0.595884  0.765138  0.934393  1.217174
  1262.930054  0.235912  0.597219  0.766893  0.936568  1.221453
  1266.439941  0.237044  0.598738  0.768706  0.938673  1.226835
  1269.949951  0.238129  0.599932  0.770314  0.940697  1.226783
  1273.459961  0.238293  0.601355  0.772058  0.942761  1.233847
  1276.969971  0.238532  0.602529  0.773660  0.944791  1.236656
  1280.479980  0.238383  0.604062  0.775509  0.946955  1.241419
  1283.989990  0.238150  0.605137  0.777089  0.949041  1.242664
  1287.510010  0.240428  0.606511  0.778748  0.950984  1.244188
  1291.020020  0.240310  0.607629  0.780321  0.953012  1.245143
  1294.530029  0.241193  0.608981  0.781944  0.954906  1.248956
  1298.050049  0.242753  0.609703  0.783134  0.956564  1.251639
  1301.560059  0.240850  0.610997  0.784636  0.958274  1.253775
  1305.079956  0.242228  0.611973  0.785984  0.959995  1.255735
  1308.589966  0.241499  0.612776  0.787035  0.961294  1.257543
  1312.109985  0.241264  0.613294  0.787924  0.962554  1.260018
  1315.619995  0.241475  0.613913  0.788648  0.963384  1.262506
  1319.140015  0.242586  0.613959  0.788908  0.963857  1.260927
  1322.660034  0.240830  0.614110  0.789085  0.964060  1.256062
  1326.180054  0.242072  0.613595  0.788642  0.963689  1.258697
  1329.699951  0.240229  0.612855  0.787792  0.962729  1.258965
  1333.219971  0.239666  0.611268  0.786030  0.960793  1.259923
  1336.739990  0.237806  0.609571  0.784079  0.958586  1.253603
  1340.260010  0.237156  0.607318  0.781490  0.955663  1.246775
  1343.780029  0.234847  0.604877  0.778557  0.952238  1.239471
  1347.300049  0.233848  0.601838  0.774980  0.948123  1.230524
  1350.819946  0.232047  0.598618  0.771216  0.943814  1.229910
  1354.349976  0.231125  0.595585  0.767544  0.939503  1.224491
  1357.869995  0.228546  0.592924  0.764307  0.935690  1.217120
  1361.390015  0.225915  0.590284  0.761127  0.931971  1.211757
  1364.920044  0.225461  0.587801  0.758300  0.928799  1.203858
  1368.439941  0.225758  0.585294  0.755458  0.925622  1.198843
  1371.969971  0.221169  0.583137  0.753098  0.923059  1.193690
  1375.500000  0.218986  0.581337  0.751083  0.920828  1.187634
  1379.020020  0.218291  0.579689  0.749059  0.918429  1.179784
  1382.550049  0.217104  0.577954  0.746869  0.915784  1.172692
  1386.079956  0.216941  0.575470  0.744189  0.912908  1.165133
  1389.609985  0.210507  0.572644  0.740904  0.909164  1.155366
  1393.140015  0.212739  0.569418  0.736849  0.904280  1.151105
  1396.670044  0.206672  0.565126  0.731762  0.898398  1.141006
  1400.199951  0.207389  0.560423  0.726014  0.891605  1.127805
  1403.729980  0.202675  0.554473  0.718699  0.882925  1.119007
  1407.260010  0.200582  0.547255  0.709966  0.872678  1.102393
  1410.790039  0.195294  0.539144  0.700107  0.861070  1.082603
  1414.319946  0.194277  0.530135  0.689278  0.848421  1.063911
  1417.859985  0.186552  0.520778  0.677775  0.834772  1.046702
  1421.390015  0.178233  0.511352  0.666076  0.820799  1.032139
  1424.920044  0.171779  0.501667  0.654293  0.806919  1.012647
  1428.459961  0.166944  0.492994  0.643522  0.794050  0.992864
  1431.989990  0.159513  0.484983  0.633637  0.782291  0.976293
  1435.530029  0.156526  0.478421  0.625458  0.772496  0.965642
  1439.069946  0.153222  0.472899  0.618754  0.764610  0.954401
  1442.599976  0.152258  0.468508  0.613399  0.758290  0.948576
  1446.140015  0.146037  0.465330  0.609441  0.753551  0.944377
  1449.680054  0.146628  0.462841  0.606485  0.750128  0.939770
  1453.219971  0.143859  0.461017  0.604290  0.747564  0.939903
  1456.760010  0.144864  0.459952  0.602944  0.745936  0.935707
  1460.300049  0.143740  0.458770  0.601725  0.744680  0.936198
  1463.839966  0.142488  0.458439  0.601265  0.744090  0.935602
  1467.380005  0.143087  0.458031  0.600987  0.743944  0.936205
  1470.920044  0.140874  0.458384  0.601439  0.744494  0.937774
  1474.459961  0.141223  0.458110  0.601467  0.744824  0.940157
  1478.010010  0.140064  0.458705  0.602164  0.745622  0.938999
  1481.550049  0.143713  0.458829  0.602565  0.746301  0.942395
  1485.089966  0.138453  0.459212  0.603084  0.746956  0.945070
  1488.640015  0.143106  0.459251  0.603405  0.747559  0.944441
  1492.180054  0.142025  0.459911  0.604201  0.748492  0.944931
  1495.729980  0.143343  0.460238  0.604884  0.749530  0.949548
  1499.270020  0.141176  0.461250  0.606158  0.751066  0.951594
  1502.819946  0.144670  0.461974  0.607304  0.752633  0.955809
  1506.369995  0.140136  0.463031  0.608723  0.754416  0.958773
  1509.910034  0.145429  0.463972  0.610051  0.756130  0.959801
  1513.459961  0.142936  0.465085  0.611517  0.757950  0.963829
  1517.010010  0.145200  0.465987  0.612849  0.759710  0.969214
  1520.560059  0.141547  0.466805  0.614079  0.761353  0.968801
  1524.109985  0.143006  0.467447  0.614978  0.762509  0.971188
  1527.660034  0.142379  0.468008  0.615859  0.763709  0.973450
  1531.209961  0.143814  0.468162  0.616286  0.764409  0.978538
  1534.760010  0.144199  0.468568  0.616806  0.765045  0.978349
  1538.319946  0.142796  0.468464  0.616787  0.765110  0.976060
  1541.869995  0.142542  0.468338  0.616850  0.765363  0.975815
  1545.420044  0.143632  0.467937  0.616420  0.764903  0.978900
  1548.979980  0.143452  0.467384  0.615887  0.764390  0.974336
  1552.530029  0.143736  0.466720  0.615140  0.763560  0.977039
  1556.089966  0.142792  0.466007  0.614386  0.762766  0.973978
  1559.640015  0.142290  0.465191  0.613553  0.761914  0.974739
  1563.199951  0.140199  0.464385  0.612787  0.761189  0.973759
  1566.750000  0.140621  0.463463  0.611738  0.760014  0.971210
  1570.310059  0.137819  0.462664  0.610921  0.759179  0.966048
  1573.869995  0.139452  0.462117  0.610375  0.758633  0.969466
  1577.430054  0.137084  0.461769  0.610010  0.758250  0.968169
  1580.989990  0.136867  0.461125  0.609419  0.757712  0.964684
  1584.550049  0.135820  0.460641  0.609044  0.757446  0.965496
  1588.109985  0.133869  0.460078  0.608518  0.756958  0.962571
  1591.670044  0.136427  0.460144  0.608594  0.757044  0.964033
  1595.229980  0.135926  0.459637  0.608147  0.756656  0.959004
  1598.790039  0.136820  0.459413  0.607966  0.756519  0.956954
  1602.349976  0.134696  0.459073  0.607668  0.756263  0.955469
  1605.920044  0.134659  0.458460  0.607136  0.755812  0.949873
  1609.479980  0.134234  0.457962  0.606637  0.755313  0.947366
  1613.040039  0.133630  0.456933  0.605542  0.754151  0.941584
  1616.609985  0.132588  0.455619  0.604088  0.752557  0.936200
  1620.170044  0.132094  0.454204  0.602428  0.750652  0.939857
  1623.739990  0.128516  0.452109  0.600240  0.748372  0.934882
  1627.310059  0.129942  0.450190  0.598096  0.746002  0.932672
  1630.869995  0.125923  0.447961  0.595760  0.743560  0.930649
  1634.439941  0.128319  0.446621  0.594339  0.742056  0.932237
  1638.010010  0.128401  0.445514  0.593444  0.741374  0.926670
  1641.579956  0.130379  0.445289  0.593279  0.741269  0.930930
  1645.150024  0.127780  0.444979  0.593006  0.741033  0.929206
  1648.709961  0.127679  0.444747  0.592717  0.740688  0.932539
  1652.290039  0.126729  0.444161  0.592036  0.739911  0.926495
  1655.859985  0.124917  0.442164  0.589840  0.737515  0.926863
  1659.430054  0.126787  0.438243  0.585844  0.733445  0.920271
  1663.000000  0.121037  0.432509  0.580253  0.727996  0.919530
  1666.569946  0.116528  0.425360  0.573669  0.721977  0.911524
  1670.140015  0.107620  0.417263  0.566574  0.715885  0.902874
  1673.719971  0.104384  0.409998  0.560230  0.710462  0.895916
  1677.290039  0.101258  0.404557  0.555239  0.705920  0.891482
  1680.869995  0.106111  0.401328  0.551699  0.702071  0.884122
  1684.439941  0.105630  0.399594  0.548834  0.698074  0.876414
  1688.020020  0.107691  0.398095  0.545341  0.692587  0.871664
  1691.589966  0.103843  0.396011  0.540783  0.685554  0.865957
  1695.170044  0.111113  0.394588  0.536398  0.678208  0.849333
  1698.750000  0.114944  0.393117  0.531439  0.669762  0.839091
  1702.329956  0.114099  0.392728  0.527448  0.662167  0.824313
  1705.910034  0.119319  0.391683  0.522855  0.654026  0.819130
  1709.489990  0.133763  0.390411  0.517851  0.645292  0.804219
  1713.069946  0.120523  0.387561  0.511449  0.635337  0.786104
  1716.650024  0.133875  0.384579  0.504135  0.623691  0.764932
  1720.229980  0.129163  0.380682  0.496310  0.611938  0.758258
